BioWare 3.0 Export
Device:	Platform 1 9286AA	Platform 1 9286AA	Platform 1 9286AA	Platform 1 9286AA
Samples (#):	3107	3107	3107	3107
Rate (Hz):	200.000000	200.000000	200.000000	200.000000
Contact period start (sample #):	0	0	0	0
Contact period end (sample #):	3106	3106	3106	3106
Contact period start time (s):	0.000000	0.000000	0.000000	0.000000
Contact period end time (s):	15.530000	15.530000	15.530000	15.530000
First sample time (s):	0.000000	0.000000	0.000000	0.000000
Normalized force (N):	692.799622	692.799622	692.799622	692.799622
Normalized length (m):	1000.000000	1000.000000	1000.000000	1000.000000
abs time (s)	Fx	Fy	Fz	Ft
	N	N	N	N
0.000000	-2.168228	1.047621	572.513885	572.518950
0.005000	-3.218235	0.040907	568.494637	568.503747
0.010000	-3.374795	-0.113560	567.297073	567.307123
0.015000	-2.673401	0.622735	571.662384	571.668974
0.020000	-2.751532	0.118347	570.721092	570.727737
0.025000	-3.141592	-0.500344	566.529541	566.538472
0.030000	-2.362961	0.234301	570.465027	570.469969
0.035000	-3.374795	-0.617122	564.989464	564.999880
0.040000	-3.102824	-0.306539	566.959648	566.968221
0.045000	-3.064652	-0.538858	566.103210	566.111762
0.050000	-2.596759	0.118759	569.782814	569.788744
0.055000	-2.636122	0.118759	569.357315	569.363430
0.060000	-2.519818	0.235126	569.270332	569.275958
0.065000	-3.220319	-0.422492	564.991653	565.000989
0.070000	-3.220617	-0.306952	566.020309	566.029555
0.075000	-3.609487	-0.229925	564.820824	564.832404
0.080000	-2.637015	0.545709	569.187004	569.193374
0.085000	-3.064652	0.235126	568.162201	568.170515
0.090000	-2.948647	0.544470	567.989922	567.997836
0.095000	-2.792682	1.047621	569.359566	569.367378
0.100000	-3.299344	0.892742	567.305923	567.316220
0.105000	-3.065546	0.969769	568.332405	568.341500
0.110000	-3.376284	0.892742	567.562653	567.573397
0.115000	-3.454713	0.814477	566.623047	566.634164
0.120000	-3.649446	0.814477	566.965843	566.978173
0.125000	-3.221808	1.278702	568.591110	568.601676
0.130000	-3.844177	0.698937	566.108971	566.122454
0.135000	-3.843880	0.892329	567.307892	567.321616
0.140000	-3.494076	0.737451	567.394897	567.406135
0.145000	-3.493481	1.240189	568.592995	568.605079
0.150000	-3.610379	0.698937	567.566978	567.578892
0.155000	-3.844177	0.698937	566.796928	566.810395
0.160000	-3.922011	0.428104	565.856926	565.870680
0.165000	-3.688808	0.661248	566.284508	566.296908
0.170000	-3.883244	0.583396	566.626350	566.639957
0.175000	-4.039207	0.428517	564.744530	564.759137
0.180000	-3.493481	1.201262	567.908401	567.920417
0.185000	-3.494076	1.125472	568.508705	568.520556
0.190000	-3.765749	0.853816	566.539421	566.552580
0.195000	-3.415648	1.125059	568.251106	568.262485
0.200000	-4.077678	0.621909	564.741501	564.756564
0.205000	-3.220617	1.551184	569.108452	569.119679
0.210000	-2.793873	1.434405	569.448624	569.457284
0.215000	-3.260874	0.931255	566.367645	566.377798
0.220000	-2.910475	0.931255	567.309807	567.318037
0.225000	-2.598842	1.473744	568.933983	568.941827
0.230000	-3.066141	0.970594	566.538429	566.547558
0.235000	-2.988605	1.240189	568.591553	568.600759
0.240000	-3.182147	1.086134	566.623192	566.633168
0.245000	-2.911070	1.318040	567.992203	568.001192
0.250000	-2.989202	1.317215	567.220787	567.230193
0.255000	-2.598842	1.742513	569.617828	569.626422
0.260000	-3.066141	1.395066	568.162956	568.172942
0.265000	-2.404705	2.324342	570.816383	570.826181
0.270000	-2.716336	1.705238	568.504410	568.513457
0.275000	-3.533142	1.240189	565.082123	565.094529
0.280000	-3.377177	1.588460	566.878693	566.890978
0.285000	-3.221808	1.821191	566.964851	566.976930
0.290000	-2.288402	2.711538	570.901451	570.912477
0.295000	-3.183041	2.014170	566.023705	566.036238
0.300000	-2.871408	2.362855	569.447449	569.459590
0.305000	-3.222106	2.402607	567.820961	567.835186
0.310000	-4.000142	1.821191	565.683014	565.700088
0.315000	-3.104909	2.711538	570.132942	570.147845
0.320000	-3.338409	2.555834	569.960838	569.976346
0.325000	-3.649446	2.130948	567.736389	567.752118
0.330000	-4.116446	1.859704	565.426048	565.444091
0.335000	-3.377177	2.750463	569.705139	569.721788
0.340000	-3.845071	1.782678	565.255447	565.271336
0.345000	-4.155511	1.899456	565.683067	565.701519
0.350000	-3.610379	2.169874	567.053032	567.068677
0.355000	-3.805112	1.937969	565.511726	565.527848
0.360000	-2.987414	2.750876	570.132347	570.146810
0.365000	-3.649446	2.131774	566.110870	566.126647
0.370000	-2.948349	2.557898	568.764420	568.777813
0.375000	-3.493481	2.092848	565.853554	565.868208
0.380000	-3.960481	1.473744	564.654663	564.670475
0.385000	-3.259980	2.326405	567.651955	567.666083
0.390000	-3.220617	2.287478	568.336418	568.350147
0.395000	-3.181849	2.170700	568.079201	568.092259
0.400000	-3.999249	1.668375	563.715088	563.731743
0.405000	-3.493183	2.055161	567.052269	567.066752
0.410000	-3.999547	1.706888	564.826302	564.843041
0.415000	-3.570719	2.365330	567.479042	567.495205
0.420000	-2.792087	2.867655	570.304123	570.318167
0.425000	-2.986521	2.790628	569.961601	569.976257
0.430000	-3.765153	2.249378	565.853760	565.870757
0.435000	-3.959290	2.133013	565.682297	565.700174
0.440000	-3.531355	2.675089	568.935104	568.952353
0.445000	-3.064652	3.022946	571.160202	571.176423
0.450000	-2.869026	3.100386	571.159973	571.175594
0.455000	-3.453224	2.596824	568.079056	568.095487
0.460000	-3.336325	2.752528	568.848473	568.864916
0.465000	-2.907794	3.061872	571.158783	571.174392
0.470000	-3.297259	2.636574	568.162628	568.178313
0.475000	-3.101633	2.869307	571.243683	571.259309
0.480000	-3.880265	2.094500	566.793510	566.810662
0.485000	-3.568634	2.210039	567.905289	567.920801
0.490000	-3.491098	2.210865	568.076935	568.091964
0.495000	-3.763367	1.707301	565.764717	565.779810
0.500000	-3.140401	2.288303	569.016983	569.030250
0.505000	-3.490502	1.823667	567.989296	568.002949
0.510000	-2.983841	2.288716	570.726303	570.738692
0.515000	-3.061674	1.707301	568.587502	568.598308
0.520000	-3.138615	1.514320	569.097382	569.108051
0.525000	-2.749448	1.166050	568.669838	568.677680
0.530000	-3.216745	0.430580	565.245560	565.254877
0.535000	-2.437817	0.662074	568.239975	568.245590
0.540000	-2.515947	0.120410	566.611717	566.617316
0.545000	-2.048054	0.508019	568.322052	568.325969
0.550000	-1.503517	0.469506	569.519043	569.521221
0.555000	-1.153415	0.431406	570.115997	570.117327
0.560000	-1.737614	-0.497869	566.009918	566.012804
0.565000	-1.620417	-0.729361	565.664078	565.666869
0.570000	-1.620417	-1.194823	564.980240	564.983827
0.575000	-0.881742	-0.729361	566.775787	566.776943
0.580000	-1.581649	-1.503345	563.610092	563.614316
0.585000	-1.193076	-1.309539	564.894905	564.897683
0.590000	-1.737911	-1.579958	562.070053	562.074960
0.595000	-1.815744	-1.579958	561.899704	561.904859
0.600000	-1.154606	-1.076807	564.723602	564.725809
0.605000	-2.322108	-1.579958	560.531517	560.538554
0.610000	-2.167335	-1.463593	560.617493	560.623593
0.615000	-1.778168	-0.805976	562.929230	562.932615
0.620000	-1.972603	-0.419190	562.071991	562.075609
0.625000	-1.155797	0.935795	567.291664	567.293613
0.630000	-2.051031	0.508844	564.380768	564.384724
0.635000	-1.351126	1.438533	567.290390	567.293823
0.640000	-1.856299	1.204563	566.178452	566.182776
0.645000	-1.544965	1.668788	567.462517	567.467074
0.650000	-0.922595	2.250203	570.798409	570.803589
0.655000	-0.883827	2.287478	571.568741	571.574002
0.660000	-1.739102	1.668375	567.632233	567.637349
0.665000	-1.233333	2.133013	569.943359	569.948685
0.670000	-2.128567	1.318866	566.005287	566.010826
0.675000	-1.777573	1.590523	567.889900	567.894910
0.680000	-1.349935	1.900693	570.455269	570.460033
0.685000	-2.011966	1.086546	567.202812	567.207421
0.690000	-1.934430	1.126711	567.888321	567.892733
0.695000	-1.349935	1.668375	570.369965	570.374002
0.700000	-1.777573	1.164811	569.342773	569.346740
0.705000	-1.972304	0.893568	567.544350	567.548480
0.710000	-1.193374	1.590523	572.339012	572.342466
0.715000	-1.933239	0.585461	567.804077	567.807670
0.720000	-1.154606	1.551597	572.166077	572.169345
0.725000	-1.193374	1.358616	571.311852	571.314713
0.730000	-2.243978	0.469093	567.973030	567.977657
0.735000	-1.659184	0.894391	570.625519	570.628632
0.740000	-1.700037	0.662074	570.026787	570.029706
0.745000	-1.737911	0.623148	570.368813	570.371801
0.750000	-1.192481	1.281177	573.022682	573.025355
0.755000	-1.581649	1.086959	571.224686	571.227910
0.760000	-2.165548	0.584222	569.085426	569.089846
0.765000	-1.854512	1.048033	571.309593	571.313564
0.770000	-1.425982	1.125472	571.908592	571.911477
0.775000	-1.659780	0.662074	570.027214	570.030015
0.780000	-1.308785	0.932081	572.336319	572.338574
0.785000	-0.958683	1.126298	573.450394	573.452301
0.790000	-1.581649	0.430580	569.168518	569.170879
0.795000	-1.464154	-0.034057	568.998825	569.000710
0.800000	-1.737315	-0.381914	567.287933	567.290722
0.805000	-1.308487	-0.343815	568.742172	568.743781
0.810000	-1.504113	-0.846140	566.346581	566.349210
0.815000	-1.347851	-0.690847	567.630287	567.632308
0.820000	-1.309381	-1.193586	566.432953	566.435724
0.825000	-1.270315	-1.310364	566.005447	566.008390
0.830000	-1.192481	-1.309539	566.175354	566.178124
0.835000	-1.504113	-1.929055	563.008400	563.013714
0.840000	-1.037111	-1.309539	565.576241	565.578707
0.845000	-0.960469	-1.813103	564.291275	564.295005
0.850000	-0.649136	-1.618885	565.318298	565.320989
0.855000	-0.492873	-1.656573	564.892151	564.894795
0.860000	-1.155202	-2.508819	561.638298	561.645089
0.865000	-1.310868	-2.238813	561.381920	561.387915
0.870000	-0.610964	-1.929468	563.005760	563.009398
0.875000	-0.376867	-1.736076	564.974472	564.977265
0.880000	0.361210	-1.194823	566.769997	566.771371
0.885000	-0.300225	-1.659875	564.287773	564.290294
0.890000	-0.339291	-1.351354	565.483749	565.485466
0.895000	-0.767524	-0.925643	564.798523	564.799803
0.900000	-0.222690	-0.072983	568.307449	568.307498
0.905000	-0.456488	-0.113146	567.025742	567.025937
0.910000	-1.078857	-0.808864	564.288765	564.290376
0.915000	-0.923489	-0.577784	565.657257	565.658306
0.920000	-0.612453	-0.151248	568.738983	568.739333
0.925000	-1.701227	-0.771175	564.204552	564.207644
0.930000	-1.818721	-0.809278	564.035141	564.038654
0.935000	-1.117923	-0.151248	567.886642	567.887763
0.940000	-1.974388	-1.118622	564.378426	564.382988
0.945000	-1.974091	-0.964156	564.294144	564.298420
0.950000	-1.740590	-0.886716	565.235870	565.239246
0.955000	-1.935024	-1.235813	564.550903	564.555572
0.960000	-0.962256	-0.654398	568.572487	568.573678
0.965000	-1.624584	-1.312015	564.381020	564.384883
0.970000	-1.351126	-1.080109	566.092125	566.094768
0.975000	-1.818721	-1.428380	563.869171	563.873913
0.980000	-1.624287	-0.847791	565.239273	565.242243
0.985000	-1.935620	-0.770764	565.325531	565.329370
0.990000	-1.546751	0.235537	567.805305	567.807461
0.995000	-2.402621	-0.036533	566.437050	566.442147
1.000000	-2.364746	0.272814	567.122505	567.127501
1.005000	-2.675187	0.505131	567.378250	567.384782
1.010000	-1.974686	1.278702	570.460571	570.465422
1.015000	-2.519818	1.200850	569.349884	569.356726
1.020000	-2.636419	1.123410	568.664864	568.672085
1.025000	-2.325086	1.394653	570.463150	570.469593
1.030000	-2.597354	1.240189	568.494324	568.501610
1.035000	-2.092180	1.395066	570.806641	570.812180
1.040000	-3.181551	0.736625	566.955284	566.964689
1.045000	-1.975579	1.588460	571.919525	571.925143
1.050000	-1.780549	1.743752	573.033234	573.038653
1.055000	-2.597950	0.969769	569.012535	569.019292
1.060000	-3.142486	0.505957	566.531708	566.540649
1.065000	-2.480157	1.009108	569.956055	569.962344
1.070000	-2.909581	0.467856	567.303993	567.311647
1.075000	-2.753319	0.623148	567.645409	567.652428
1.080000	-2.247848	1.126711	570.385063	570.390605
1.085000	-2.403514	1.320103	570.727631	570.734218
1.090000	-2.403514	1.590110	571.070755	571.078027
1.095000	-3.299344	1.009108	566.876999	566.887498
1.100000	-3.454415	1.008695	567.306107	567.317520
1.105000	-3.571910	1.125472	566.708107	566.720481
1.110000	-3.181551	1.589697	568.675262	568.686384
1.115000	-3.454713	1.434818	568.677422	568.689725
1.120000	-3.221808	1.782678	569.362892	569.374798
1.125000	-3.532546	1.667136	567.480919	567.494363
1.130000	-3.571910	2.014996	568.337639	568.352435
1.135000	-3.882052	2.053922	567.995987	568.012966
1.140000	-3.882648	2.132187	568.595306	568.612560
1.145000	-3.571611	2.402607	569.537071	569.553338
1.150000	-3.921713	1.783091	567.057381	567.073745
1.155000	-4.116148	1.512671	565.772995	565.789990
1.160000	-4.038612	1.707301	565.944366	565.961351
1.165000	-4.155511	1.590110	565.859337	565.876829
1.170000	-4.816947	1.435644	564.234062	564.256450
1.175000	-3.961077	1.823667	567.058105	567.074872
1.180000	-4.428077	1.551597	565.091232	565.110711
1.185000	-3.532248	2.443182	569.798126	569.814312
1.190000	-3.921713	2.288303	568.512642	568.530773
1.195000	-3.649446	2.171526	568.770210	568.786064
1.200000	-3.883244	1.784328	566.801254	566.817365
1.205000	-3.765749	2.093674	568.512207	568.528534
1.210000	-3.765749	2.133013	568.513168	568.529641
1.215000	-3.765450	2.171526	568.341766	568.358388
1.220000	-3.687617	2.054748	569.111755	569.127412
1.225000	-3.999249	1.823254	567.227112	567.244140
1.230000	-3.765153	2.094500	568.254700	568.271033
1.235000	-3.726683	1.707301	567.484993	567.499798
1.240000	-3.998356	1.397955	567.056900	567.072719
1.245000	-3.415051	1.823667	569.111221	569.124389
1.250000	-3.220319	2.016647	571.078682	571.091322
1.255000	-2.831152	2.056397	571.849686	571.860391
1.260000	-3.998057	1.204150	565.516045	565.531459
1.265000	-4.036528	1.166050	566.457542	566.473124
1.270000	-3.220021	1.591349	569.280655	569.291986
1.275000	-3.842689	0.701000	566.027565	566.041043
1.280000	-2.868729	1.437294	570.904694	570.913710
1.285000	-3.024396	1.050096	569.706451	569.715447
1.290000	-2.791491	0.855878	569.449562	569.457047
1.295000	-2.323597	0.971419	570.304520	570.310080
1.300000	-2.556204	0.624386	569.448029	569.454108
1.305000	-2.440496	0.276114	568.761597	568.766900
1.310000	-2.012561	0.508432	571.072800	571.076572
1.315000	-1.856894	0.431406	571.073860	571.077042
1.320000	-2.051627	-0.188110	568.590332	568.594065
1.325000	-2.362365	-0.458941	567.821953	567.827052
1.330000	-2.557693	-0.652747	566.964142	566.970287
1.335000	-2.128567	-0.304063	569.104912	569.108974
1.340000	-2.712764	-0.962506	565.852493	565.859814
1.345000	-2.712466	-0.961680	565.767059	565.774379
1.350000	-1.856299	-0.342164	569.619942	569.623069
1.355000	-2.829961	-1.116971	565.082886	565.091076
1.360000	-1.973495	-0.613820	568.163315	568.167074
1.365000	-2.518627	-0.922753	566.365067	566.371418
1.370000	-2.634931	-0.729774	567.048759	567.055351
1.375000	-2.441092	-1.039533	565.851379	565.857600
1.380000	-2.440794	-0.846140	566.022545	566.028440
1.385000	-1.623393	-0.420841	568.845673	568.848145
1.390000	-2.518925	-1.156724	563.967896	563.974707
1.395000	-2.129758	-0.846140	565.850281	565.854921
1.400000	-1.857787	-0.381914	566.533783	566.536958
1.405000	-2.285425	-0.305302	566.705429	566.710120
1.410000	-1.779655	-0.034470	568.415962	568.418749
1.415000	-2.051924	-0.072983	567.559654	567.563368
1.420000	-2.247252	-0.034057	567.218147	567.222600
1.425000	-2.246955	0.042558	568.244980	568.249424
1.430000	-2.286020	-0.189347	568.415710	568.420339
1.435000	-2.130353	-0.034470	568.842270	568.846260
1.440000	-2.557693	-0.344640	567.474419	567.480287
1.445000	-2.051924	-0.034470	569.614288	569.617985
1.450000	-1.896555	0.119997	569.699478	569.702648
1.455000	-2.674890	-0.653573	565.507072	565.513776
1.460000	-2.285425	-0.498693	567.046791	567.051616
1.465000	-2.479859	-0.653573	566.533554	566.539359
1.470000	-2.558586	-0.885479	565.421425	565.427907
1.475000	-2.635228	-0.963331	566.363304	566.370254
1.480000	-1.429256	0.003220	571.327873	571.329661
1.485000	-2.791193	-1.001844	564.908989	564.916773
1.490000	-2.596759	-0.924404	565.508781	565.515499
1.495000	-1.857787	-0.034470	569.529999	569.533030
1.500000	-2.597354	-0.885479	566.279221	566.285869
1.505000	-2.364152	-0.731425	566.194260	566.199668
1.510000	-2.013156	0.042558	569.617706	569.621265
1.515000	-1.468620	0.469093	571.158485	571.160566
1.520000	-1.624584	0.199087	570.216820	570.219169
1.525000	-2.519818	-0.420841	567.051598	567.057352
1.530000	-2.675486	-0.305302	566.280800	566.287203
1.535000	-2.753021	-0.266788	566.367332	566.374086
1.540000	-2.325978	0.236775	568.591911	568.596718
1.545000	-1.935918	0.739925	570.987862	570.991623
1.550000	-1.896852	1.049272	571.074585	571.078699
1.555000	-2.286615	0.623561	568.762413	568.767351
1.560000	-2.481348	0.197849	567.652199	567.657657
1.565000	-2.364152	0.392067	568.078156	568.083210
1.570000	-2.247848	0.392067	568.166504	568.171086
1.575000	-2.209080	0.315041	567.908623	567.913007
1.580000	-2.714253	0.043383	565.939911	565.946421
1.585000	-2.013453	0.469506	568.335663	568.339423
1.590000	-2.753021	0.275289	566.111038	566.117799
1.595000	-2.753616	0.313802	566.881836	566.888611
1.600000	-2.519818	0.276114	567.567261	567.572921
1.605000	-2.557693	0.353554	567.824905	567.830776
1.610000	-2.753319	0.004869	566.025597	566.032293
1.615000	-2.130651	0.546946	569.707886	569.712132
1.620000	-2.597651	0.044209	566.797882	566.803836
1.625000	-2.792087	-0.033231	565.599846	565.606738
1.630000	-2.714551	0.004869	566.455177	566.461682
1.635000	-3.259385	-0.459355	564.315468	564.325068
1.640000	-2.519223	0.392067	567.911362	567.917085
1.645000	-2.636419	0.430580	566.797661	566.803956
1.650000	-2.402621	0.663312	568.593857	568.599320
1.655000	-2.013453	0.934143	570.306007	570.310327
1.660000	-2.325383	0.701000	568.593857	568.599044
1.665000	-2.869325	0.430580	567.054192	567.061614
1.670000	-1.935918	1.048446	570.391724	570.395972
1.675000	-2.713955	0.777614	568.423088	568.430099
1.680000	-2.713955	0.701000	567.739716	567.746635
1.685000	-2.480157	1.049272	569.449905	569.456273
1.690000	-2.090989	1.320929	570.649292	570.654652
1.695000	-2.675187	0.740338	567.567352	567.574140
1.700000	-2.207294	0.973069	569.793709	569.798815
1.705000	-1.935918	1.321754	570.563858	570.568673
1.710000	-2.090989	1.437294	571.249550	571.255185
1.715000	-2.247252	1.206213	568.852570	568.858287
1.720000	-3.064652	0.741988	566.199898	566.208678
1.725000	-2.753021	1.012408	567.568520	567.576099
1.730000	-2.674890	1.204976	568.853043	568.860608
1.735000	-2.247549	1.437707	570.394081	570.400321
1.740000	-2.558884	1.166050	567.483368	567.490335
1.745000	-1.935918	1.824080	571.249069	571.255262
1.750000	-2.870813	1.166050	567.140327	567.148792
1.755000	-2.286317	1.669201	569.024353	569.031394
1.760000	-1.898044	2.095736	571.334274	571.341271
1.765000	-2.209080	1.746227	569.451210	569.458172
1.770000	-2.053115	2.018297	569.622276	569.629552
1.775000	-2.014645	1.825729	569.708717	569.715205
1.780000	-3.220319	1.167700	565.344048	565.354425
1.785000	-3.026480	1.360268	565.772797	565.782527
1.790000	-3.142783	1.321754	566.372025	566.382286
1.795000	-3.220319	1.127124	565.772797	565.783084
1.800000	-3.376284	1.128361	565.001991	565.013206
1.805000	-2.286317	1.786803	569.624481	569.631872
1.810000	-2.714849	1.477046	566.800453	566.808879
1.815000	-3.181551	0.857943	564.831070	564.840682
1.820000	-2.831450	1.051334	565.431145	565.439211
1.825000	-2.870217	1.090673	565.087418	565.095759
1.830000	-3.065546	0.896043	564.061089	564.070130
1.835000	-2.792682	1.129187	565.516335	565.524357
1.840000	-2.286615	1.476220	567.826279	567.832802
1.845000	-2.715146	1.322991	566.027634	566.035692
1.850000	-3.220617	1.012408	564.144943	564.155045
1.855000	-2.092180	1.940858	569.708054	569.715201
1.860000	-2.948349	1.554072	566.369484	566.379290
1.865000	-2.831450	1.746227	566.969086	566.978845
1.870000	-2.481348	1.979371	568.423187	568.432049
1.875000	-2.753021	1.631099	567.909172	567.918187
1.880000	-2.870813	1.437707	566.112030	566.121135
1.885000	-2.870217	1.514733	566.710373	566.719666
1.890000	-1.974388	2.251440	570.818642	570.826496
1.895000	-2.364152	2.018297	570.049667	570.058143
1.900000	-2.520414	1.592999	568.252403	568.260226
1.905000	-3.181551	1.167700	566.114182	566.124326
1.910000	-2.402621	2.096148	569.023560	569.032493
1.915000	-2.675486	1.787216	568.337997	568.347105
1.920000	-3.414158	1.438533	565.943161	565.955287
1.925000	-2.947753	2.096148	570.478683	570.490150
1.930000	-3.064652	2.405495	570.308762	570.322069
1.935000	-3.181253	2.057222	569.198174	569.210781
1.940000	-3.103420	2.056810	568.685318	568.697505
1.945000	-3.064652	2.211277	569.539261	569.551799
1.950000	-3.648552	1.631512	566.116005	566.130113
1.955000	-3.765153	1.631099	566.631020	566.645876
1.960000	-3.259385	2.250203	569.626175	569.639944
1.965000	-2.831152	2.521447	571.507576	571.520151
1.970000	-3.025289	2.482934	570.224991	570.238422
1.975000	-2.947455	2.753352	570.822151	570.836401
1.980000	-3.375986	2.018709	568.768929	568.782530
1.985000	-3.532248	1.901932	566.714279	566.728479
1.990000	-3.337516	2.134662	569.793457	569.807230
1.995000	-3.687022	1.437294	566.713730	566.727546
2.000000	-3.064652	2.134249	570.993698	571.005911
2.005000	-3.375986	1.515559	567.399002	567.411069
2.010000	-3.609487	1.321754	567.141487	567.154513
2.015000	-3.064056	1.592999	569.537285	569.547755
2.020000	-3.532248	0.819016	566.370300	566.381907
2.025000	-3.920820	0.509257	565.001236	565.015070
2.030000	-2.948349	1.477046	570.563820	570.573349
2.035000	-3.531355	0.935795	567.310631	567.322393
2.040000	-3.220021	0.934556	568.081833	568.091727
2.045000	-3.064056	1.012821	569.106262	569.115412
2.050000	-2.947753	1.283652	569.534401	569.543476
2.055000	-3.493183	0.470331	565.853554	565.864531
2.060000	-3.180956	0.780090	567.308426	567.317880
2.065000	-3.259087	0.431406	565.855232	565.864782
2.070000	-3.297854	0.819427	566.709274	566.719462
2.075000	-2.713955	1.051334	568.761444	568.768891
2.080000	-2.869325	1.012821	568.760712	568.768851
2.085000	-2.830258	1.012408	568.590462	568.598407
2.090000	-2.714551	0.818191	569.016739	569.023802
2.095000	-2.675187	0.934556	569.015587	569.022643
2.100000	-2.441688	0.819016	569.017326	569.023154
2.105000	-2.597354	0.934556	568.586342	568.593042
2.110000	-2.286020	1.011582	570.725922	570.731396
2.115000	-1.935918	1.204976	571.067383	571.071935
2.120000	-2.518925	0.818191	569.783333	569.789488
2.125000	-2.636122	0.662487	568.756248	568.762743
2.130000	-2.441389	0.546535	569.355232	569.360729
2.135000	-2.363556	0.507608	569.354370	569.359502
2.140000	-2.051924	0.701000	570.292641	570.296763
2.145000	-1.663054	1.127124	572.689156	572.692679
2.150000	-2.169716	0.314628	568.581497	568.585724
2.155000	-2.557693	0.043796	567.981178	567.986939
2.160000	-1.857787	0.430580	570.122047	570.125237
2.165000	-2.051627	0.274876	570.035263	570.039021
2.170000	-1.895959	0.392067	569.779007	569.782296
2.175000	-2.597354	-0.304888	566.269066	566.275105
2.180000	-1.896256	-0.034057	569.434372	569.437530
2.185000	-2.091883	0.160574	568.408691	568.412563
2.190000	-1.973792	-0.111496	569.005463	569.008897
2.195000	-1.896555	-0.458941	568.065735	568.069086
2.200000	-2.169121	-0.846140	566.952034	566.956815
2.205000	-1.506792	-0.807627	567.553780	567.556354
2.210000	-1.390489	-0.768288	567.381554	567.383778
2.215000	-1.663054	-1.115734	565.241318	565.244865
2.220000	-1.508578	-1.619297	563.102882	563.107231
2.225000	-1.585519	-1.464417	564.128807	564.132936
2.230000	-1.118816	-1.464417	564.044235	564.047246
2.235000	-1.430448	-1.657810	561.989769	561.994035
2.240000	-1.118816	-1.154247	563.359528	563.361821
2.245000	-1.314144	-1.269788	563.702385	563.705347
2.250000	-1.429852	-0.844489	563.272751	563.275199
2.255000	-1.469513	-1.232100	561.305054	561.308330
2.260000	-0.924977	-0.381090	564.898949	564.899835
2.265000	-1.352912	-0.536382	563.444695	563.446574
2.270000	-0.924977	-0.110671	565.325218	565.325986
2.275000	-1.275376	-0.150009	564.897415	564.898875
2.280000	-1.275376	-0.150009	563.356186	563.357650
2.285000	-1.157584	-0.072570	565.496712	565.497901
2.290000	-0.652411	0.119997	567.035172	567.035560
2.295000	-0.769012	0.004457	565.493515	565.494038
2.300000	-0.379250	0.545709	568.746223	568.746612
2.305000	-0.924977	-0.072983	565.322357	565.323119
2.310000	-0.535512	0.274876	567.975372	567.975691
2.315000	-0.068512	0.701412	570.285454	570.285889
2.320000	-1.040983	0.043383	566.946609	566.947567
2.325000	-0.223583	0.507608	570.286728	570.286998
2.330000	-0.302310	0.469093	570.628578	570.628851
2.335000	-0.145750	0.584635	570.457748	570.458067
2.340000	-0.846548	0.198262	568.061813	568.062479
2.345000	-1.157584	-0.150009	566.350616	566.351819
2.350000	-1.274781	-0.305713	565.493942	565.495462
2.355000	-1.196650	-0.227860	566.521736	566.523046
2.360000	-0.028851	0.739925	571.743340	571.743819
2.365000	-0.885018	-0.034470	567.720688	567.721379
2.370000	-0.651815	0.238013	569.690353	569.690776
2.375000	-1.274781	-0.614234	565.667511	565.669281
2.380000	-0.924084	0.043383	567.979744	567.980497
2.385000	-1.275376	-0.459355	565.840439	565.842063
2.390000	-0.923786	0.238013	567.724007	567.724808
2.395000	-1.118816	0.199087	567.724815	567.725953
2.400000	-0.807483	0.973482	569.607880	569.609284
2.405000	-1.236013	0.508019	567.381203	567.382776
2.410000	-1.703013	0.198262	565.671341	565.673939
2.415000	-1.469513	1.011582	568.410439	568.413238
2.420000	-1.469810	1.011169	568.581306	568.584105
2.425000	-1.430448	0.816540	568.752266	568.754651
2.430000	-1.236013	1.049272	570.122871	570.125177
2.435000	-1.819317	0.817365	567.383568	567.387073
2.440000	-1.857787	0.855878	568.067642	568.071325
2.445000	-1.352912	0.894391	569.266907	569.269217
2.450000	-1.702716	1.089435	569.094872	569.098462
2.455000	-1.896852	0.624386	567.298553	567.302068
2.460000	-1.585816	0.857117	568.838531	568.841388
2.465000	-1.001619	1.398781	571.747749	571.750338
2.470000	-2.169418	0.430580	566.868820	566.873135
2.475000	-1.857489	0.739925	569.608467	569.611976
2.480000	-1.430745	0.778852	570.720299	570.722624
2.485000	-2.479859	0.352315	568.152733	568.158254
2.490000	-2.169418	0.508019	570.122002	570.126355
2.495000	-2.675486	0.391654	569.008934	569.015359
2.500000	-2.636122	0.778439	570.377602	570.384224
2.505000	-3.298450	0.430167	568.323990	568.333724
2.510000	-3.375390	0.701000	569.693642	569.704072
2.515000	-3.064652	0.972243	571.148041	571.157090
2.520000	-3.103420	1.009933	571.147308	571.156633
2.525000	-2.208186	1.706888	575.939911	575.946673
2.530000	-3.103420	0.971006	570.890907	570.900168
2.535000	-2.987414	1.009933	570.719208	570.727920
2.540000	-2.986521	1.125472	570.290779	570.299710
2.545000	-2.907794	1.241014	571.230606	571.239355
2.550000	-1.935323	1.782678	575.508980	575.514995
2.555000	-2.129758	1.279114	573.712029	573.717407
2.560000	-0.922595	2.052683	579.616547	579.620916
2.565000	-1.934727	1.240189	574.651443	574.656039
2.570000	-1.233631	1.704000	578.417084	578.420909
2.575000	-1.156096	1.820778	579.871368	579.875379
2.580000	-1.466536	1.704000	579.528244	579.532605
2.585000	-1.427470	1.821604	580.215958	580.220573
2.590000	-1.972603	1.279114	577.390335	577.395122
2.595000	-2.284234	0.970594	576.022865	576.028212
2.600000	-2.517436	0.700174	574.311272	574.317216
2.605000	-2.868134	0.815716	573.969063	573.976808
2.610000	-3.062865	0.274876	572.427711	572.435972
2.615000	-3.179467	0.043383	571.658737	571.667581
2.620000	-3.102527	0.044209	572.429985	572.438394
2.625000	-3.763664	-0.458117	569.691185	569.703801
2.630000	-3.803623	-0.495805	568.580261	568.593200
2.635000	-4.114659	-0.611758	566.440865	566.456139
2.640000	-3.997760	-0.572006	566.443787	566.458183
2.645000	-4.075891	-1.307062	564.218819	564.235054
2.650000	-3.492587	-0.803912	565.931450	565.942798
2.655000	-3.958992	-1.190697	562.935539	562.950720
2.660000	-4.152831	-1.150946	561.566139	561.582674
2.665000	-3.919629	-0.609694	562.680801	562.694784
2.670000	-3.686426	-0.493329	564.306221	564.318478
2.675000	-4.230069	-0.531429	563.451088	563.467217
2.680000	-3.841497	-0.145471	564.990768	565.003847
2.685000	-4.035336	0.125774	565.246323	565.260741
2.690000	-4.346670	-0.029930	564.220825	564.237569
2.695000	-4.268837	0.512146	565.503914	565.520258
2.700000	-4.386034	0.396606	564.817162	564.834330
2.705000	-5.125898	-0.028692	562.162750	562.186120
2.710000	-4.853034	0.435945	565.585274	565.606262
2.715000	-4.696772	0.589998	567.124550	567.144305
2.720000	-5.280672	-0.067618	564.041237	564.065960
2.725000	-4.775201	0.086435	566.007240	566.027390
2.730000	-4.579873	-0.029105	567.202972	567.221463
2.735000	-3.840902	-0.029930	570.281754	570.294689
2.740000	-4.035336	-0.379439	568.996445	569.010880
2.745000	-4.034145	-0.340100	569.849579	569.863960
2.750000	-3.684044	-0.417953	570.534142	570.546189
2.755000	-4.034443	-0.457292	570.102783	570.117242
2.760000	-4.073509	-0.689198	569.331924	569.346914
2.765000	-3.917842	-0.573245	569.671608	569.685368
2.770000	-3.995378	-1.075982	568.043404	568.058473
2.775000	-3.295771	-0.690435	569.924812	569.934760
2.780000	-3.217937	-0.573657	569.579277	569.588656
2.785000	-2.673401	-0.147533	571.204987	571.211262
2.790000	-2.868134	-0.147120	570.174644	570.181877
2.795000	-3.296663	-0.573657	567.007721	567.017595
2.800000	-3.491693	-0.573245	566.834526	566.845570
2.805000	-3.531355	-0.690435	566.407700	566.419129
2.810000	-2.947753	0.122886	568.204315	568.211975
2.815000	-3.297854	-0.031168	568.032242	568.041816
2.820000	-3.648552	-0.031580	565.294220	565.305995
2.825000	-4.427779	-0.495805	561.529068	561.546744
2.830000	-4.311476	-0.031580	562.898338	562.914851
2.835000	-4.623107	0.083960	562.812569	562.831562
2.840000	-4.468036	0.238426	562.897087	562.914870
2.845000	-4.585531	0.199500	561.612617	561.631373
2.850000	-4.117637	1.011995	564.520264	564.536188
2.855000	-4.390798	0.508432	562.039177	562.056558
2.860000	-3.767535	1.011995	565.202805	565.216267
2.865000	-3.145464	1.281590	566.226608	566.236795
2.870000	-2.990093	1.281590	565.969116	565.978466
2.875000	-2.483729	1.590523	567.250999	567.258667
2.880000	-2.406194	1.280764	566.564156	566.570713
2.885000	-2.600033	1.048033	565.363991	565.370941
2.890000	-2.329552	0.892742	564.591179	564.596691
2.895000	-2.173289	0.930842	565.616333	565.621274
2.900000	-1.978557	0.737038	564.931297	564.935243
2.905000	-1.512152	0.775138	565.441338	565.443891
2.910000	-1.161455	1.084897	567.407982	567.410208
2.915000	-1.357080	0.697699	564.839622	564.841684
2.920000	-1.708672	0.387529	562.356010	562.358740
2.925000	-0.462740	1.123410	566.720055	566.721357
2.930000	-0.852800	0.735799	564.665390	564.666513
2.935000	-0.268603	1.239363	566.464180	566.465599
2.940000	-0.697134	1.161923	565.523659	565.525282
2.945000	-1.709267	1.123410	565.269882	565.273583
2.950000	-3.111459	0.544057	561.594826	561.603709
2.955000	-3.695061	0.660011	561.082245	561.094800
2.960000	-4.512164	0.234301	558.775444	558.793711
2.965000	-4.239895	0.854229	561.344597	561.361259
2.970000	-5.175088	0.428517	559.208565	559.232674
2.975000	-5.758392	0.275289	557.241814	557.271634
2.980000	-5.797160	0.662074	557.671021	557.701544
2.985000	-6.070619	-0.072570	555.363312	555.396494
2.990000	-6.460084	-0.575721	552.796295	552.834341
2.995000	-6.499149	-0.226211	554.082085	554.120246
3.000000	-7.005811	-0.380264	551.944656	551.989248
3.005000	-6.850144	-0.186047	551.861191	551.903735
3.010000	-7.590008	-0.649858	548.098251	548.151187
3.015000	-7.628776	-0.533906	546.987610	547.041067
3.020000	-7.668139	-0.531429	544.676834	544.731068
3.025000	-7.474002	-0.183159	543.739082	543.790478
3.030000	-6.423698	0.591649	546.908218	546.946262
3.035000	-6.969128	0.360569	541.945709	541.990637
3.040000	-6.930062	0.592475	541.008171	541.052879
3.045000	-6.735627	1.096037	539.812614	539.855748
3.050000	-5.723197	2.102752	541.867516	541.901819
3.055000	-5.841287	1.947873	538.702896	538.738086
3.060000	-4.790685	2.799294	542.211662	542.240051
3.065000	-4.011457	3.340134	542.726608	542.751711
3.070000	-3.856684	2.952935	539.645836	539.667696
3.075000	-2.494151	3.688817	540.844360	540.862691
3.080000	-2.417211	2.992274	537.677666	537.691425
3.085000	-2.339675	2.411685	533.829712	533.840287
3.090000	-1.484401	2.142503	532.461136	532.467515
3.095000	-0.667597	2.607552	534.258621	534.265402
3.100000	-0.395626	2.725156	532.464828	532.471949
3.105000	-0.979824	1.873734	526.216454	526.220702
3.110000	-0.279620	2.648542	528.785416	528.792122
3.115000	-0.514014	2.571514	527.244476	527.250998
3.120000	-1.097319	2.184317	524.334908	524.340606
3.125000	-0.630615	2.415810	524.933075	524.939013
3.130000	-0.747812	2.301095	523.822105	523.827693
3.135000	-0.085781	3.074664	527.759987	527.768950
3.140000	-0.708448	2.687469	525.877014	525.884358
3.145000	-0.279323	3.075077	528.190201	528.199226
3.150000	-1.329926	2.340021	526.138634	526.145518
3.155000	-1.367502	2.571927	529.993019	530.001024
3.160000	-2.651903	1.760670	528.629135	528.638719
3.165000	-3.701612	1.333720	527.775253	527.789919
3.170000	-3.585309	1.799183	532.400467	532.415579
3.175000	-4.440583	1.257519	531.119614	531.139665
3.180000	-5.296751	0.755607	529.155022	529.182070
3.185000	-5.257387	0.910897	531.297867	531.324659
3.190000	-5.763751	0.717505	529.588455	529.620305
3.195000	-6.347056	0.563040	527.279831	527.318331
3.200000	-6.152324	1.530827	530.789268	530.827130
3.205000	-6.035722	1.880337	530.276840	530.314523
3.210000	-5.412756	2.615393	531.902840	531.936809
3.215000	-5.763155	2.460513	529.506073	529.543152
3.220000	-6.113556	2.653080	529.420845	529.462790
3.225000	-5.334030	3.931451	534.468788	534.509863
3.230000	-5.451822	4.046579	534.467743	534.510866
3.235000	-6.540597	3.620043	531.471741	531.524313
3.240000	-6.579960	3.774097	533.096428	533.150393
3.245000	-6.462466	4.432126	535.149658	535.207029
3.250000	-6.929169	4.045753	533.098869	533.159250
3.255000	-6.618728	4.394850	532.757072	532.816310
3.260000	-6.774097	3.931451	529.849281	529.907167
3.265000	-6.775289	3.622518	527.027969	527.083966
3.270000	-6.386121	3.507803	524.802940	524.853516
3.275000	-5.608978	3.353749	524.290375	524.331103
3.280000	-5.415139	2.851837	521.467003	521.502916
3.285000	-4.714936	2.426539	519.414200	519.441267
3.290000	-4.560162	1.306348	511.711739	511.733725
3.295000	-2.925957	1.346925	511.369179	511.379323
3.300000	-2.420189	0.573355	505.803703	505.809818
3.305000	-1.759052	0.187395	502.806450	502.809562
3.310000	-0.708746	0.343100	501.690239	501.690857
3.315000	0.303088	0.459053	502.198883	502.199184
3.320000	1.003589	0.227147	502.452324	502.453378
3.325000	0.847624	-0.508735	497.740082	497.741064
3.330000	1.158957	-0.276416	499.018372	499.019794
3.335000	1.197131	-0.508735	499.527885	499.529579
3.340000	1.081124	-0.314929	499.697678	499.698946
3.345000	0.341558	-1.011886	497.726311	497.727457
3.350000	0.574463	-1.010235	496.700333	496.701692
3.355000	0.574165	-1.396194	495.929039	495.931337
3.360000	0.612933	-1.667851	494.220200	494.223394
3.365000	1.390672	-1.162225	493.022926	493.026258
3.370000	1.974273	-1.082723	489.346581	489.351761
3.375000	1.857375	-1.391656	484.983658	484.989211
3.380000	2.518513	-1.119585	486.782013	486.789816
3.385000	2.168113	-0.847928	485.244514	485.250099
3.390000	1.662047	-0.578334	485.416641	485.419831
3.395000	0.532718	-1.043384	487.129128	487.130536
3.400000	-0.866498	-0.581223	492.176224	492.177330
3.405000	-1.411629	0.577482	500.906593	500.908915
3.410000	-4.097032	0.151358	498.678810	498.695663
3.415000	-4.757575	0.575006	503.641464	503.664263
3.420000	-5.807879	0.729059	505.005455	505.039377
3.425000	-5.728854	1.153945	509.023407	509.056952
3.430000	-5.145848	1.734123	509.789040	509.817960
3.435000	-4.988395	1.154358	505.337753	505.363692
3.440000	-2.691862	1.620233	507.132698	507.142430
3.445000	-1.757563	1.158484	504.735992	504.740382
3.450000	-0.940759	0.618470	498.833023	498.834294
3.455000	-0.162423	-0.229238	491.986824	491.986904
3.460000	0.655869	-0.846277	486.511299	486.512477
3.465000	2.055681	-1.192898	483.771301	483.777140
3.470000	3.806784	-1.695224	483.599564	483.617518
3.475000	4.312850	-2.315978	483.426964	483.451749
3.480000	4.857684	-2.703175	483.340225	483.372194
3.485000	5.051523	-2.742927	486.592445	486.626396
3.490000	3.922790	-2.666312	487.874641	487.897698
3.495000	2.288585	-3.132188	487.960541	487.975960
3.500000	0.925458	-2.939620	489.672707	489.682405
3.505000	-0.242342	-3.482522	489.842178	489.854618
3.510000	0.029927	-3.097800	496.173988	496.183660
3.515000	-0.436478	-3.642353	499.851402	499.864863
3.520000	-0.202085	-3.411685	504.127869	504.139453
3.525000	-1.098212	-3.952936	500.447586	500.464402
3.530000	-0.902884	-3.952936	501.304878	501.321276
3.535000	-1.487677	-5.229244	498.653343	498.682980
3.540000	-1.486188	-5.618092	503.360306	503.393851
3.545000	-1.408355	-6.006115	505.584862	505.622497
3.550000	-1.719986	-5.928263	505.156563	505.194275
3.555000	-1.291158	-5.698008	505.670769	505.704519
3.560000	-0.512228	-5.195270	508.493027	508.519824
3.565000	0.889668	-4.114004	515.849617	515.866789
3.570000	1.902395	-3.962014	518.755539	518.774157
3.575000	2.836992	-3.693245	523.115341	523.136071
3.580000	3.187689	-3.774398	527.220947	527.244094
3.585000	2.993850	-3.700261	531.494987	531.516300
3.590000	3.734310	-2.115845	540.052826	540.069881
3.595000	2.606172	-2.349401	539.626266	539.637674
3.600000	2.412928	-1.848315	546.303612	546.312067
3.605000	1.985589	-1.848726	550.754593	550.761275
3.610000	1.324748	-2.430555	552.641853	552.648786
3.615000	1.676637	-2.663698	555.467979	555.476897
3.620000	1.328024	-3.050483	555.129074	555.139044
3.625000	2.107847	-2.586260	559.840508	559.850449
3.630000	2.147508	-2.545270	561.043625	561.053508
3.635000	0.787657	-3.279501	558.140198	558.150388
3.640000	0.594114	-3.162311	560.027397	560.036641
3.645000	0.790038	-2.543619	564.310432	564.316718
3.650000	0.363295	-2.930405	563.800255	563.807987
3.655000	-0.257884	-2.506345	568.250053	568.255639
3.660000	-0.140092	-1.695498	576.121704	576.124216
3.665000	-0.722205	-1.425492	579.800232	579.802434
3.670000	-2.198658	-1.930706	580.827873	580.835243
3.675000	-2.508801	-1.623010	586.300758	586.308372
3.680000	-2.117252	-1.199362	593.311974	593.316964
3.685000	-0.752934	-0.428682	600.752159	600.752784
3.690000	0.767052	0.846388	608.188484	608.189557
3.695000	1.859400	1.424089	611.518913	611.523398
3.700000	4.040225	3.280162	619.640869	619.662722
3.705000	6.144110	5.253013	626.137901	626.190080
3.710000	7.780399	6.143361	627.074013	627.152368
3.715000	9.493925	6.684612	629.549034	629.656101
3.720000	11.208046	6.800565	631.255928	631.392045
3.725000	13.895236	7.690500	637.238632	637.436503
3.730000	15.027245	7.691326	638.776375	638.999399
3.735000	16.157170	7.963396	641.002129	641.255174
3.740000	16.081421	7.694215	643.227997	643.474995
3.745000	15.655272	7.075935	644.428383	644.657349
3.750000	15.305766	6.225338	643.832878	644.044871
3.755000	14.918682	5.607887	645.894669	646.091277
3.760000	14.024343	5.066634	647.269928	647.441667
3.765000	12.702367	4.718364	649.502792	649.644126
3.770000	11.535162	4.330339	651.903984	652.020411
3.775000	10.407918	4.522081	656.014801	656.112942
3.780000	11.070543	5.332516	664.404930	664.518550
3.785000	10.566561	5.135821	665.948044	666.051669
3.790000	10.956921	5.675010	671.853149	671.966453
3.795000	11.462986	5.941715	676.130539	676.253806
3.800000	13.061697	7.447041	684.600922	684.766010
3.805000	13.724026	7.364648	686.736435	686.913035
3.810000	15.866383	8.329548	693.490585	693.722074
3.815000	18.123551	8.634355	700.073746	700.361524
3.820000	20.382506	8.049637	703.232056	703.573427
3.825000	23.186298	8.200390	709.642273	710.068311
3.830000	26.300527	8.118412	714.083054	714.613346
3.835000	30.779075	10.553837	725.546707	726.275953
3.840000	33.076205	11.288480	728.802567	729.640080
3.845000	33.932671	10.360443	729.752274	730.614225
3.850000	34.673726	9.586048	735.583527	736.462684
3.855000	33.818453	8.541235	736.366470	737.192118
3.860000	32.224208	7.535759	734.839569	735.584380
3.865000	32.029175	7.496420	736.049789	736.784471
3.870000	31.641795	7.263689	736.833313	737.548165
3.875000	31.408889	7.185837	738.470947	739.173521
3.880000	31.098452	6.991619	740.789795	741.475230
3.885000	31.215050	7.259975	743.536133	744.226489
3.890000	31.721714	7.684448	745.935852	746.649592
3.895000	32.735632	8.765713	750.219559	750.984584
3.900000	33.785938	10.273514	755.871155	756.695604
3.905000	33.981565	11.509245	759.381821	760.228886
3.910000	34.410092	13.055559	766.402359	767.285526
3.915000	35.265667	14.717413	773.166153	774.109921
3.920000	36.705733	16.574311	782.238312	783.274406
3.925000	37.250568	16.999610	786.690414	787.755292
3.930000	38.380790	17.076636	794.738449	795.847912
3.935000	39.703959	16.573074	800.987900	802.142560
3.940000	41.418079	15.953969	807.664536	808.883173
3.945000	44.338470	15.720826	820.850983	822.197896
3.950000	45.118297	13.746325	824.538452	825.886361
3.955000	46.015314	12.853500	832.939117	834.308213
3.960000	45.432308	11.226858	837.749649	839.055786
3.965000	43.371360	9.406412	840.765305	841.935777
3.970000	41.269264	8.087877	844.383911	845.430515
3.975000	37.921530	6.461233	844.838043	845.713373
3.980000	34.845768	5.531136	846.063858	846.799193
3.985000	32.432634	5.139811	851.390442	852.023461
3.990000	30.213339	3.398453	849.191650	849.735756
3.995000	27.174263	0.610632	849.557816	849.992527
4.000000	23.513708	-2.796295	846.672531	847.003594
4.005000	20.357735	-5.196507	847.464737	847.725145
4.010000	17.006132	-8.371115	845.090591	845.303136
4.015000	14.589128	-11.276127	846.222847	846.423712
4.020000	11.861086	-14.489660	845.301521	845.508899
4.025000	9.132450	-16.192917	845.407181	845.611562
4.030000	7.298747	-16.542011	848.590019	848.782617
4.035000	4.726375	-17.046404	848.263504	848.447930
4.040000	2.153999	-18.324362	846.140152	846.341290
4.045000	0.011049	-18.828338	846.752335	846.961642
4.050000	-2.092538	-18.364526	853.101418	853.301625
4.055000	-5.909354	-18.246508	851.917946	852.133817
4.060000	-11.360077	-17.744183	850.309082	850.570069
4.065000	-15.410392	-16.660854	852.378433	852.680513
4.070000	-19.536755	-15.306284	854.190926	854.551405
4.075000	-23.312719	-13.915672	857.202950	857.632803
4.080000	-28.567222	-12.988874	856.021622	856.596646
4.085000	-33.159394	-11.752319	856.980423	857.702226
4.090000	-37.868466	-11.095114	856.826324	857.734500
4.095000	-42.537580	-10.902546	856.413780	857.538847
4.100000	-46.117915	-10.244516	857.967857	859.267512
4.105000	-49.697063	-10.320307	857.807838	859.308207
4.110000	-51.446978	-10.474360	860.640366	862.240304
4.115000	-53.548182	-11.633064	857.140907	858.890721
4.120000	-53.897093	-12.366056	859.284546	861.061988
4.125000	-55.259027	-14.647427	854.240005	856.150743
4.130000	-54.985865	-16.425236	853.129463	855.057375
4.135000	-54.753260	-19.172481	850.223701	852.200590
4.140000	-54.481586	-20.795821	850.229004	852.226536
4.145000	-54.755045	-22.343788	848.437233	850.495795
4.150000	-54.950673	-22.884212	846.902565	848.991883
4.155000	-54.952161	-22.961239	846.564400	848.656728
4.160000	-54.799171	-22.418337	846.740746	848.808236
4.165000	-55.657126	-21.449726	846.402382	848.501502
4.170000	-56.554148	-19.474401	846.236221	848.347432
4.175000	-56.827013	-17.113114	850.435120	852.503408
4.180000	-57.450871	-15.488122	852.323921	854.398356
4.185000	-58.112007	-13.516508	857.552483	859.625478
4.190000	-57.839145	-10.965130	866.804520	868.801287
4.195000	-58.848894	-8.956242	873.405624	875.431774
4.200000	-60.246918	-6.601559	882.061485	884.141242
4.205000	-62.967813	-4.596798	887.980263	890.221895
4.210000	-65.806204	-2.784603	894.756699	897.177664
4.215000	-69.541016	-1.087124	900.846748	903.527531
4.220000	-73.274637	0.843500	908.223503	911.174964
4.225000	-76.582413	2.736023	915.683311	918.884257
4.230000	-80.279947	3.972580	922.371323	925.866895
4.235000	-85.261286	2.695858	929.914604	933.819000
4.240000	-86.896385	5.175573	926.673340	930.753054
4.245000	-90.906443	8.313316	932.333382	936.791667
4.250000	-95.772671	9.866648	930.204315	935.173686
4.255000	-97.797829	11.962465	925.758965	930.987205
4.260000	-99.395054	14.331179	918.573479	924.046533
4.265000	-99.706982	17.208818	909.584625	915.194961
4.270000	-98.424667	20.512998	897.603897	903.217003
4.275000	-94.456055	23.588983	881.333755	886.694747
4.280000	-91.656731	27.250924	859.583702	864.885952
4.285000	-85.706196	30.218795	830.210701	835.169765
4.290000	-74.930878	33.228069	798.601334	802.796880
4.295000	-63.886568	34.498875	751.668842	755.167342
4.300000	-50.236182	36.042163	705.925419	708.627835
4.305000	-36.512128	35.806817	647.849537	649.864821
4.310000	-21.586271	34.925411	582.403927	583.849369
4.315000	-6.162388	33.472490	514.644100	515.768293
4.320000	6.741884	30.717268	437.805578	438.933626
4.325000	17.241656	27.747195	353.775541	355.280615
4.330000	25.914576	25.044652	259.644040	262.133224
4.335000	32.913928	20.291819	153.791545	158.577816
4.340000	33.139687	13.866403	62.872164	72.411498
4.345000	26.323455	8.171091	17.939685	32.886522
4.350000	10.704303	2.334518	9.031498	14.198592
4.355000	1.321949	-0.496357	-3.365053	3.649315
4.360000	-0.538610	-0.084675	0.311731	0.628049
4.365000	0.473225	0.338147	1.168652	1.305386
4.370000	1.176406	0.449974	3.394043	3.620212
4.375000	0.632167	0.294269	1.170278	1.362270
4.380000	-0.339411	0.021374	-0.884387	0.947521
4.385000	0.206019	0.368821	1.597224	1.652149
4.390000	0.089715	0.289730	0.570155	0.645809
4.395000	0.052138	0.441721	0.656933	0.793345
4.400000	0.636336	0.750241	3.137878	3.288474
4.405000	0.831961	0.824792	3.394911	3.591359
4.410000	1.143891	1.133725	5.021669	5.273611
4.415000	0.833153	1.093973	4.337404	4.550164
4.420000	0.794385	0.860417	3.994074	4.162210
4.425000	0.794385	0.937856	3.738669	3.935513
4.430000	-0.255027	0.123297	-0.455144	0.536094
4.435000	0.640505	0.663723	2.284654	2.463822
4.440000	0.251635	0.198261	1.086088	1.132349
4.445000	1.225297	1.163572	5.963735	6.198499
4.450000	-0.097275	0.118758	-0.198303	0.250779
4.455000	0.097457	0.466617	0.487831	0.682062
4.460000	0.525094	0.542406	2.285756	2.407199
4.465000	-0.213281	0.077769	-0.027142	0.228634
4.470000	0.525988	0.619433	3.054548	3.160795
4.475000	-0.017953	0.115044	-0.197346	0.229135
4.480000	1.032649	0.966466	4.852424	5.054349
4.485000	0.215547	0.539104	1.514424	1.621904
4.490000	-0.094893	0.112156	0.230993	0.273754
4.495000	0.138011	0.074055	-0.025941	0.158759
4.500000	0.216738	0.421089	1.770780	1.833018
4.505000	0.956305	0.885725	4.338743	4.530311
4.510000	0.296060	0.459189	1.171955	1.293052
4.515000	0.568031	0.341586	0.916025	1.130682
4.520000	0.568328	0.534978	2.370139	2.495347
4.525000	0.101626	0.224395	0.744383	0.784083
4.530000	0.334828	0.379274	2.112483	2.172221
4.535000	-0.092511	-0.008749	-0.368366	0.379905
4.540000	-0.092511	-0.125939	-0.112289	0.192426
4.545000	0.647353	0.532503	2.798141	2.920996
4.550000	0.258484	0.338284	1.001702	1.088419
4.555000	-0.325118	-0.165691	-1.481541	1.525817
4.560000	0.298442	0.491926	1.856698	1.943807
4.565000	0.025281	0.104316	-0.025899	0.110416
4.570000	0.298442	0.298533	2.028485	2.071941
4.575000	-0.091022	-0.128828	-0.453083	0.479756
4.580000	0.415044	0.529614	2.200223	2.300812
4.585000	0.142180	0.103077	0.317579	0.362900
4.590000	0.337806	0.412010	2.198160	2.261807
4.595000	-0.128302	0.024813	-0.026663	0.133371
4.600000	-0.090427	-0.053452	-1.052964	1.058191
4.605000	0.027067	0.140766	0.402922	0.427661
4.610000	0.727568	0.953262	4.682028	4.833161
4.615000	0.805997	0.952024	4.166629	4.349342
4.620000	0.066431	0.216555	0.402298	0.461685
4.625000	0.689098	0.759044	3.653618	3.794724
4.630000	0.456491	0.602927	2.627121	2.733802
4.635000	0.066431	0.293169	0.830301	0.883040
4.640000	0.729057	0.989299	4.167776	4.345180
4.645000	0.690587	0.717642	3.740348	3.870675
4.650000	0.106390	0.059613	-0.196720	0.231454
4.655000	0.145455	0.330445	0.916122	0.984698
4.660000	0.222693	0.292344	-0.281725	0.463062
4.665000	0.729653	0.678716	3.568561	3.705088
4.670000	0.378956	0.252180	1.771021	1.828583
4.675000	0.651819	0.715992	3.911798	4.029848
4.680000	3.820004	-1.799210	21.214174	21.630321
4.685000	-28.035072	-7.547202	91.564063	96.056771
4.690000	-23.961292	-9.780293	192.582722	194.313927
4.695000	-0.994176	3.273422	192.858356	192.888697
4.700000	-35.150071	25.846557	485.449326	487.406011
4.705000	-121.402260	17.698490	604.412201	616.738076
4.710000	-18.638604	18.550052	623.316231	623.870680
4.715000	55.628487	31.478322	618.205780	621.501247
4.720000	76.238865	35.509166	654.569931	659.950801
4.725000	45.424865	28.942626	740.868324	742.823645
4.730000	26.718876	18.485542	798.833954	799.494402
4.735000	23.929379	13.963514	842.831299	843.286543
4.740000	14.593237	10.579420	876.043381	876.228790
4.745000	-10.314358	4.026085	906.183899	906.251540
4.750000	-39.937276	-1.077494	935.554626	936.407286
4.755000	-60.498699	-9.538347	962.261215	964.208338
4.760000	-67.905979	-17.307194	978.003189	980.510581
4.765000	-69.551796	-21.290993	998.015686	1000.662814
4.770000	-76.138697	-23.967402	1025.716446	1028.817654
4.775000	-79.100832	-26.308745	1077.238205	1080.458811
4.780000	-29.716320	-11.833744	1272.851349	1273.253177
4.785000	126.048988	30.240667	1543.729675	1549.162405
4.790000	206.821701	58.622452	1450.169098	1466.015764
4.795000	111.399750	44.533274	1373.868927	1379.097149
4.800000	12.187306	36.681899	1228.763275	1229.371091
4.805000	-51.859368	32.643352	1113.639648	1115.324280
4.810000	-65.070150	29.722384	1027.185410	1029.673448
4.815000	-44.351571	28.760785	978.645050	980.071619
4.820000	-18.800466	25.849994	954.118927	954.654182
4.825000	-5.288176	22.148991	905.151581	905.437975
4.830000	-8.560457	19.312615	841.599319	841.864403
4.835000	-20.978313	17.659014	786.776169	787.253879
4.840000	-29.498246	17.656538	752.123947	752.909245
4.845000	-29.533144	20.282052	739.097244	739.965070
4.850000	-26.181541	22.675663	727.513504	728.337530
4.855000	-22.129437	25.878055	719.781189	720.586113
4.860000	-19.752691	28.806313	714.786240	715.639114
4.865000	-16.480409	33.473867	723.648666	724.609892
4.870000	-11.379194	38.679782	734.215836	735.322042
4.875000	-3.943868	43.308409	749.316086	750.576957
4.880000	3.531418	44.378119	759.542221	760.845762
4.885000	10.968531	43.322990	771.739944	773.032814
4.890000	18.251466	40.877662	783.261154	784.539441
4.895000	25.221876	37.968521	792.731903	794.041322
4.900000	30.829753	34.750450	799.043350	800.392618
4.905000	34.101736	30.723596	798.092957	799.411806
4.910000	36.553340	26.775417	800.057175	801.339224
4.915000	36.476103	22.593272	801.680557	802.827925
4.920000	35.695683	19.649333	802.362320	803.396272
4.925000	33.903131	17.748145	804.501602	805.411228
4.930000	31.214456	15.732654	806.562378	807.319471
4.935000	28.135121	13.522533	806.827499	807.431147
4.940000	25.797141	11.777462	809.746094	810.242518
4.945000	22.524563	9.219895	810.529999	810.895333
4.950000	18.085378	5.618751	807.976501	808.198415
4.955000	14.151364	2.483483	808.077454	808.205172
4.960000	10.528388	-0.456330	804.586731	804.655742
4.965000	7.842092	-3.315402	800.324677	800.369963
4.970000	6.282743	-6.368279	792.384354	792.434850
4.975000	5.853915	-8.065346	787.347580	787.410649
4.980000	6.396962	-9.916880	780.167664	780.256912
4.985000	8.654728	-10.687148	777.689590	777.811172
4.990000	12.003054	-10.953854	778.803528	778.973039
4.995000	14.999792	-11.878176	772.726395	772.963237
5.000000	17.921075	-12.143643	768.448044	768.752905
5.005000	21.423282	-11.477774	766.135780	766.521187
5.010000	23.797649	-11.587950	760.656143	761.116533
5.015000	25.548753	-11.194150	755.093941	755.608964
5.020000	26.950945	-9.912065	751.071281	751.620032
5.025000	27.884946	-8.512377	746.712074	747.281040
5.030000	28.351351	-8.774957	737.735786	738.332506
5.035000	28.390120	-9.885244	726.193680	726.815642
5.040000	28.933762	-11.227024	716.028893	716.701181
5.045000	29.245691	-12.840049	708.605675	709.325158
5.050000	27.378881	-15.424989	700.499153	701.203677
5.055000	23.993869	-18.125880	691.967033	692.620119
5.060000	20.026151	-20.908340	682.662582	683.276230
5.065000	17.421263	-22.572257	680.289024	680.886308
5.070000	13.844795	-24.819240	671.323090	671.924373
5.075000	11.046662	-26.797454	664.327080	664.959097
5.080000	9.766133	-28.428635	661.434479	662.117161
5.085000	7.941067	-30.562969	656.566971	657.325903
5.090000	8.488878	-30.914953	658.288643	659.068838
5.095000	9.698125	-30.569159	660.003510	660.782233
5.100000	11.762646	-30.417166	663.344398	664.145583
5.105000	12.347439	-31.424706	658.726402	659.591119
5.110000	13.244161	-31.966370	657.448059	658.357963
5.115000	14.295955	-32.508447	655.826805	656.787615
5.120000	14.841683	-33.668388	652.495544	653.532150
5.125000	16.165744	-34.093687	654.640862	655.727358
5.130000	15.778661	-35.758432	649.768387	650.942846
5.135000	15.584822	-36.572576	646.007164	647.229245
5.140000	15.974883	-35.877684	645.928574	647.121416
5.145000	15.158375	-35.763794	643.116455	644.288445
5.150000	13.679838	-35.339321	638.596992	639.720349
5.155000	11.501693	-35.884699	635.105278	636.222221
5.160000	8.118470	-37.089345	631.185493	632.326384
5.165000	5.007216	-37.947368	626.666168	627.834024
5.170000	2.129464	-38.419434	625.485428	626.667861
5.175000	-0.943915	-39.237705	621.305702	622.544186
5.180000	-4.171471	-39.206207	619.180878	620.434918
5.185000	-6.272379	-38.088493	621.503204	622.700818
5.190000	-8.412649	-36.776148	619.458038	620.605768
5.195000	-10.319420	-35.114705	615.617371	616.704370
5.200000	-11.642291	-33.452850	614.426132	615.446267
5.205000	-12.848560	-31.595541	613.578995	614.526278
5.210000	-13.977592	-29.776743	613.413643	614.294982
5.215000	-14.288032	-27.764143	614.619629	615.412288
5.220000	-15.610903	-27.416696	609.662483	610.478271
5.225000	-16.076117	-26.255517	610.865234	611.640522
5.230000	-15.686950	-25.170950	610.611023	611.330907
5.235000	-15.724228	-24.358040	607.705063	608.396260
5.240000	-14.400167	-22.924378	608.391617	608.993638
5.245000	-14.282374	-22.574869	605.569778	606.158698
5.250000	-14.243309	-21.761136	603.947914	604.507652
5.255000	-15.604948	-21.837749	597.103714	597.706656
5.260000	-15.098286	-20.288547	600.615089	601.147294
5.265000	-15.915090	-19.707957	595.994705	596.532801
5.270000	-15.564393	-18.120240	596.680939	597.158887
5.275000	-16.654656	-17.886271	589.151329	589.658024
5.280000	-16.692532	-16.802530	588.551689	589.028061
5.285000	-15.448089	-14.556373	591.889214	592.269679
5.290000	-15.409024	-13.394780	588.464668	588.818753
5.295000	-14.710011	-11.305152	587.692612	587.985371
5.300000	-13.309308	-8.866838	589.400475	589.617400
5.305000	-11.558800	-6.544891	588.797798	588.947611
5.310000	-10.859192	-4.841634	585.460426	585.581142
5.315000	-10.043579	-2.442660	586.746597	586.837635
5.320000	-10.046258	0.114494	588.632835	588.718571
5.325000	-11.332445	1.744025	584.957245	585.069606
5.330000	-12.503223	3.257190	579.313171	579.457238
5.335000	-12.233336	5.814757	582.227333	582.384867
5.340000	-12.467432	6.668242	580.089478	580.261755
5.345000	-12.778468	6.939899	578.123405	578.306254
5.350000	-11.844467	7.637268	580.950844	581.121762
5.355000	-12.194569	7.020640	577.957756	578.129021
5.360000	-12.543479	6.363436	575.477051	575.648911
5.365000	-11.726079	6.402362	577.874130	578.028547
5.370000	-11.881448	5.745570	575.734467	575.885715
5.375000	-11.063452	6.557654	580.958260	581.100596
5.380000	-10.985619	6.054090	578.989517	579.125372
5.385000	-11.880555	6.091366	581.987061	582.140182
5.390000	-13.632254	5.084240	577.963440	578.146543
5.395000	-13.438415	5.741444	581.643814	581.827364
5.400000	-14.412673	5.160028	576.851891	577.054984
5.405000	-14.841501	5.431273	578.905983	579.121668
5.410000	-15.659496	4.347946	578.136269	578.364651
5.415000	-16.243693	3.457598	577.965919	578.204477
5.420000	-16.438724	2.489810	579.680077	579.918462
5.425000	-17.372130	1.174164	576.598831	576.861666
5.430000	-18.384262	-0.025530	573.946228	574.240589
5.435000	-19.046888	-0.682734	569.325676	569.644604
5.440000	-18.112589	-0.062393	569.752182	570.040015
5.445000	-17.257613	0.324392	569.835220	570.096578
5.450000	-16.517153	0.712415	571.543587	571.782647
5.455000	-15.893890	1.138125	571.541565	571.763650
5.460000	-15.738223	1.021347	570.082184	570.300299
5.465000	-15.504425	0.982421	568.710533	568.922686
5.470000	-15.387228	0.595637	567.766602	567.975383
5.475000	-14.802733	0.596874	570.845314	571.037520
5.480000	-15.852740	-0.679433	566.135658	566.357974
5.485000	-15.500555	-1.027292	571.951920	572.162845
5.490000	-15.422423	-1.956979	573.317726	573.528461
5.495000	-15.342207	-2.500705	575.795181	576.004972
5.500000	-14.796481	-2.656822	579.301460	579.496485
5.505000	-15.651755	-3.431218	578.785706	579.007464
5.510000	-15.574219	-3.703700	583.490570	583.710133
5.515000	-17.637847	-4.672313	579.895828	580.182812
5.520000	-18.378605	-4.324867	581.178261	581.484865
5.525000	-19.275625	-3.746340	579.806755	580.139171
5.530000	-19.470357	-2.429869	580.232475	580.564143
5.535000	-18.966970	-1.036783	579.973877	580.284860
5.540000	-18.656233	-0.417679	575.435341	575.737841
5.545000	-16.710992	0.743501	577.141891	577.384251
5.550000	-15.543789	1.247064	576.195023	576.405993
5.555000	-14.882055	1.285578	571.483360	571.678545
5.560000	-13.987417	1.132349	566.513237	566.687019
5.565000	-12.080051	2.062036	566.507050	566.639583
5.570000	-10.679347	2.487334	564.619125	564.725590
5.575000	-9.161446	3.377682	566.238472	566.322654
5.580000	-8.149016	3.765292	564.348251	564.419642
5.585000	-6.397913	5.002674	566.309479	566.367713
5.590000	-4.529613	6.317082	566.646111	566.699424
5.595000	-3.479010	7.399997	568.439178	568.497989
5.600000	-3.399688	7.399584	568.522224	568.580541
5.605000	-4.412416	6.935361	567.493721	567.553250
5.610000	-5.462423	6.508411	567.663528	567.727117
5.615000	-5.541447	6.818995	568.945778	569.013624
5.620000	-6.748313	5.851620	564.323082	564.393765
5.625000	-6.515407	5.697978	564.493279	564.559633
5.630000	-7.061730	4.885896	559.697472	559.763343
5.635000	-6.712224	4.808043	559.182518	559.243471
5.640000	-6.284885	4.885896	560.034279	560.090854
5.645000	-6.325141	5.001849	557.290703	557.349041
5.650000	-5.198492	5.853683	558.142403	558.197305
5.655000	-4.731491	7.129991	553.601715	553.667845
5.660000	-3.409812	8.793908	552.397827	552.478343
5.665000	-1.503637	10.998665	555.644806	555.755685
5.670000	-0.219236	11.963977	554.785294	554.914324
5.675000	0.947968	13.007141	558.375275	558.527557
5.680000	0.948265	13.238222	558.114632	558.272417
5.685000	1.298665	14.514529	561.020805	561.210034
5.690000	0.404027	14.786187	558.791901	558.987641
5.695000	0.286532	14.398576	557.847519	558.033382
5.700000	0.948265	14.090881	557.670135	557.848933
5.705000	1.025801	13.240697	552.961166	553.120620
5.710000	2.231773	13.165734	552.526695	552.688037
5.715000	3.282375	12.431915	551.579163	551.729009
5.720000	4.058625	10.846262	549.006554	549.128682
5.725000	4.485667	9.145069	545.920578	546.015596
5.730000	5.612019	8.605055	546.861069	546.957558
5.735000	5.065100	6.943614	543.011307	543.079320
5.740000	4.516396	6.173758	542.498436	542.552363
5.745000	2.294420	4.243546	532.746048	532.767889
5.750000	1.707840	3.321287	530.011017	530.024175
5.755000	1.120070	1.854888	525.219948	525.224418
5.760000	1.389956	1.046106	525.133781	525.136663
5.765000	1.154372	-0.538721	520.767982	520.769541
5.770000	1.735889	-0.807902	519.909966	519.913491
5.775000	2.746831	-0.728812	522.045822	522.053557
5.780000	3.680236	-1.503208	519.134186	519.149407
5.785000	4.965828	-1.387668	522.042519	522.067981
5.790000	4.848333	-1.890406	519.731178	519.757230
5.795000	6.094562	-0.923443	522.296234	522.332607
5.800000	6.288104	-0.962369	522.636658	522.675370
5.805000	6.365937	-0.577235	523.233994	523.273036
5.810000	6.015240	-0.732940	522.804733	522.839851
5.815000	5.898639	0.349151	526.225792	526.258967
5.820000	5.432530	0.308987	529.049332	529.077313
5.825000	4.692964	0.385601	530.762886	530.783773
5.830000	2.942456	-0.233502	528.199257	528.207504
5.835000	1.929133	-1.083274	526.147469	526.152120
5.840000	0.762227	-2.089163	524.179878	524.184596
5.845000	-0.249905	-3.287618	522.554214	522.564616
5.850000	-0.405573	-4.098876	522.897400	522.913622
5.855000	-0.599411	-4.910134	522.553787	522.577199
5.860000	-0.327441	-5.993461	523.149910	523.184343
5.865000	-0.638477	-7.268530	522.033859	522.084849
5.870000	0.605965	-7.460685	525.880280	525.933548
5.875000	0.254375	-8.775920	522.538773	522.612524
5.880000	0.527238	-9.123366	521.934425	522.014423
5.885000	0.876148	-8.813194	523.382179	523.457110
5.890000	0.914916	-7.807305	524.831360	524.890224
5.895000	1.380427	-6.335956	522.687325	522.727548
5.900000	1.458559	-4.981382	518.998222	519.024177
5.905000	2.626061	-2.544722	521.901970	521.914780
5.910000	3.015228	-0.919730	520.438988	520.448535
5.915000	4.650027	1.866856	525.482002	525.505892
5.920000	4.260562	3.026384	521.623505	521.649683
5.925000	4.650623	4.573112	521.876762	521.917519
5.930000	5.544964	6.198516	522.900436	522.966571
5.935000	5.584029	7.280605	521.100014	521.180787
5.940000	5.544964	8.324182	520.498955	520.595045
5.945000	5.194862	9.327595	519.212692	519.322453
5.950000	5.038600	10.447784	522.121071	522.249898
5.955000	5.310868	11.993274	526.652885	526.816197
5.960000	4.766630	12.764368	528.103096	528.278837
5.965000	5.310570	14.154565	533.148735	533.363035
5.970000	5.193373	14.616726	533.573868	533.799300
5.975000	5.191586	14.420860	532.202118	532.422772
5.980000	4.840592	14.032010	532.112709	532.319701
5.985000	5.385128	14.107386	535.702682	535.915462
5.990000	5.694973	13.601761	536.722557	536.925082
5.995000	5.306997	13.598871	539.024727	539.222356
6.000000	5.968432	13.829126	543.634514	543.843131
6.005000	6.824303	14.679312	545.760483	546.000511
6.010000	8.264072	15.877767	547.375374	547.667964
6.015000	8.692305	16.031409	543.513680	543.819531
6.020000	10.560308	16.534971	544.358505	544.711949
6.025000	12.350178	16.418192	541.525620	541.915197
6.030000	13.675133	15.645036	536.812866	537.214882
6.035000	15.581011	15.760989	536.978985	537.436142
6.040000	16.437476	15.297178	535.004837	535.475835
6.045000	16.788471	14.600220	531.233845	531.699555
6.050000	17.878139	14.869815	530.629887	531.139168
6.055000	18.267307	14.830064	528.315414	528.839108
6.060000	20.213440	15.911328	531.046741	531.669442
6.065000	20.097434	15.366364	528.645546	529.250551
6.070000	20.448726	15.634719	532.064610	532.686909
6.075000	20.098922	15.903488	536.253117	536.865246
6.080000	19.632517	16.713921	541.385113	541.998737
6.085000	18.893249	16.440613	544.892033	545.467300
6.090000	17.454074	16.284496	547.202244	547.722672
6.095000	16.714509	15.857548	548.998802	549.482048
6.100000	15.975240	16.126729	550.279739	550.747738
6.105000	15.236269	16.009538	551.478722	551.921398
6.110000	15.470363	16.549139	556.011711	556.473026
6.115000	15.315591	16.702780	556.694359	557.155418
6.120000	15.704460	16.740468	557.549965	558.022255
6.125000	16.288361	17.165766	559.602249	560.102358
6.130000	16.715997	17.357508	560.887497	561.404927
6.135000	16.793532	17.433710	562.172943	562.693855
6.140000	16.249592	16.775267	561.065903	561.551784
6.145000	15.858936	15.963185	560.043480	560.495342
6.150000	15.586668	15.267467	561.760803	562.184347
6.155000	14.418869	13.371643	558.769341	559.115266
6.160000	14.692030	12.212114	559.116692	559.442996
6.165000	14.808334	10.276951	556.725586	557.017307
6.170000	15.898300	9.194448	562.465279	562.765034
6.175000	15.277419	7.337138	563.839882	564.094536
6.180000	13.526315	4.823037	560.252472	560.436486
6.185000	12.203743	2.967790	558.122513	558.263807
6.190000	11.348170	1.304696	557.788521	557.905473
6.195000	10.063769	-0.705430	553.260529	553.352500
6.200000	10.064365	-1.363046	554.896812	554.989749
6.205000	9.168834	-2.870434	549.939293	550.023211
6.210000	9.441698	-3.218706	552.084206	552.174317
6.215000	9.674602	-3.643592	552.261009	552.357761
6.220000	8.778774	-4.262282	548.582748	548.669542
6.225000	8.311474	-4.031202	550.724808	550.802274
6.230000	6.716932	-3.760782	549.269119	549.323062
6.235000	7.534331	-1.943224	555.006432	555.060971
6.240000	7.378069	-1.363872	556.118118	556.168731
6.245000	6.017323	-1.442549	555.778862	555.813307
6.250000	5.200519	-0.979150	559.033730	559.058776
6.255000	3.332815	-2.023964	558.269104	558.282721
6.260000	2.243146	-1.831398	560.585258	560.592738
6.265000	0.648604	-1.947350	560.590454	560.594212
6.270000	-0.751803	-1.366760	563.590202	563.592361
6.275000	-1.880835	-0.709556	565.477539	565.481112
6.280000	-3.475973	-0.478476	562.913147	562.924082
6.285000	-3.787605	0.952712	566.250984	566.264453
6.290000	-3.748539	3.157468	569.160942	569.182044
6.295000	-4.177070	5.207345	569.073837	569.112991
6.300000	-3.788796	7.568218	568.389236	568.452247
6.305000	-3.827564	9.464042	566.505081	566.597057
6.310000	-3.634617	11.435655	564.791931	564.919384
6.315000	-2.661849	13.873968	567.956337	568.132003
6.320000	-2.661849	14.916307	564.701050	564.904290
6.325000	-1.378342	16.734691	568.462776	568.710715
6.330000	-1.183014	16.733041	565.294800	565.543637
6.335000	0.762823	17.391895	569.746185	570.012084
6.340000	1.619586	16.310218	565.554131	565.791588
6.345000	1.114413	16.152863	568.378090	568.608662
6.350000	0.803973	13.716200	565.132431	565.299430
6.355000	1.153777	12.441956	564.283173	564.421502
6.360000	0.803973	9.888928	558.556572	558.644683
6.365000	0.959938	8.846178	559.760696	559.831415
6.370000	0.804866	7.417053	558.654640	558.704455
6.375000	-0.051302	5.290975	552.071274	552.096630
6.380000	-0.479833	4.092932	548.056274	548.071767
6.385000	-0.246630	4.442441	549.085396	549.103422
6.390000	-0.401404	4.405166	547.378868	547.396741
6.395000	-0.986197	3.979867	541.991058	542.006568
6.400000	-0.868702	4.909142	543.276726	543.299600
6.405000	-0.751803	5.683124	544.305626	544.335813
6.410000	-1.063137	5.915030	545.760452	545.793541
6.415000	-1.802406	5.952718	544.735016	544.770521
6.420000	-2.503204	5.758087	543.622513	543.658770
6.425000	-2.112548	6.338264	549.186340	549.226978
6.430000	-1.800619	6.569758	553.292763	553.334696
6.435000	-2.656192	5.910491	554.320175	554.358048
6.440000	-3.355204	5.096756	556.289673	556.323139
6.445000	-3.080851	5.096756	562.026779	562.058332
6.450000	-3.896464	3.471352	561.773048	561.797286
6.455000	-3.778969	3.045641	565.370811	565.391644
6.460000	-4.438619	2.233558	567.429054	567.450810
6.465000	-4.476493	0.880637	566.833260	566.851620
6.470000	-5.409899	-1.014362	564.015633	564.042489
6.475000	-5.876304	-2.444724	560.342728	560.378872
6.480000	-6.070739	-3.216643	559.666351	559.708518
6.485000	-6.108613	-3.369459	559.847351	559.890815
6.490000	-7.354544	-3.909059	553.865730	553.928350
6.495000	-8.210116	-2.978960	552.930763	552.999737
6.500000	-8.911808	-1.623149	552.767784	552.842001
6.505000	-10.158036	-0.810654	549.864311	549.958729
6.510000	-10.430602	1.202361	552.009804	552.109651
6.515000	-10.937264	2.132048	550.559715	550.672470
6.520000	-10.626526	3.410006	550.992844	551.105856
6.525000	-10.666782	4.648213	549.368813	549.492018
6.530000	-11.288259	5.150537	546.715912	546.856692
6.535000	-9.692822	7.083224	554.331978	554.461959
6.540000	-9.187054	7.314305	553.902733	554.027200
6.545000	-8.641922	6.965209	553.216545	553.327880
6.550000	-7.201855	7.465883	557.490982	557.587483
6.555000	-6.422627	8.083749	561.169724	561.264693
6.560000	-6.267556	8.043172	562.362175	562.454612
6.565000	-5.993203	8.429132	565.097832	565.192470
6.570000	-5.175803	8.930219	568.860596	568.954229
6.575000	-5.214571	8.504095	568.688179	568.775664
6.580000	-5.252743	8.154585	569.201057	569.283701
6.585000	-6.069845	8.232438	569.284042	569.375919
6.590000	-6.458417	7.843590	569.370689	569.461338
6.595000	-6.926609	7.842765	570.910240	571.006120
6.600000	-7.431782	7.726399	573.221977	573.322216
6.605000	-8.132580	7.144983	573.653343	573.755477
6.610000	-9.183779	6.526706	571.431999	571.543060
6.615000	-9.690440	6.062481	570.237411	570.351965
6.620000	-9.690143	5.598669	570.668556	570.778280
6.625000	-9.611416	4.669808	569.643158	569.743375
6.630000	-9.261909	3.819211	569.388718	569.476849
6.635000	-8.561111	3.006303	567.676697	567.749207
6.640000	-7.392716	2.542491	568.361771	568.415534
6.645000	-6.146488	1.807022	567.080826	567.117014
6.650000	-4.667653	1.112129	568.534119	568.554367
6.655000	-4.627991	-0.203104	563.400208	563.419252
6.660000	-3.848466	-0.668154	563.913010	563.926537
6.665000	-3.187031	-0.938573	567.163116	567.172847
6.670000	-3.069238	-1.674868	568.357994	568.368749
6.675000	-2.874208	-2.294796	569.213455	569.225337
6.680000	-2.717946	-2.992165	571.778152	571.792441
6.685000	-3.339720	-3.999290	571.260933	571.284694
6.690000	-3.572923	-5.044931	574.513466	574.546725
6.695000	-4.583269	-5.704198	577.081436	577.127827
6.700000	-5.127507	-6.012305	581.873787	581.927438
6.705000	-6.177514	-7.251337	582.731316	582.809171
6.710000	-6.488252	-8.179373	583.506248	583.599642
6.715000	-6.682687	-8.875091	585.219521	585.324963
6.720000	-6.954658	-9.455269	585.393883	585.511543
6.725000	-7.149389	-9.995695	584.027412	584.156697
6.730000	-7.186371	-9.300802	590.957947	591.074821
6.735000	-6.253263	-10.344791	585.481758	585.606529
6.740000	-5.279899	-10.729926	585.827507	585.949551
6.745000	-4.656933	-11.813666	581.037689	581.176433
6.750000	-4.423731	-12.509797	577.697723	577.850088
6.755000	-3.411896	-12.276240	578.555252	578.695539
6.760000	-2.633859	-11.773502	579.838348	579.963846
6.765000	-2.049662	-11.578872	580.352295	580.471410
6.770000	-2.478788	-12.198388	576.416458	576.550846
6.775000	-2.440020	-11.849704	576.930237	577.057075
6.780000	-2.401252	-11.462919	578.471649	578.590195
6.785000	-3.529986	-12.236901	574.196518	574.337744
6.790000	-4.075118	-12.933444	573.428650	573.588962
6.795000	-4.581184	-13.319817	573.518570	573.691515
6.800000	-5.397095	-13.705364	572.238449	572.427994
6.805000	-5.436756	-13.782390	572.070862	572.262688
6.810000	-5.864393	-14.671500	569.846718	570.065721
6.815000	-5.630595	-14.827204	571.303940	571.524051
6.820000	-6.059126	-15.329529	570.362442	570.600581
6.825000	-6.135768	-15.676975	569.935341	570.183925
6.830000	-6.292031	-16.064999	568.823509	569.085107
6.835000	-6.174239	-15.832267	569.935783	570.189073
6.840000	-5.863798	-15.559784	570.792686	571.034834
6.845000	-6.447102	-16.179713	566.682419	566.950008
6.850000	-5.435268	-15.250853	570.447433	570.677146
6.855000	-5.357732	-15.057047	570.533257	570.757056
6.860000	-5.668470	-15.173001	568.735390	568.965988
6.865000	-5.591233	-14.786628	568.989288	569.208851
6.870000	-5.668470	-14.360917	570.444275	570.653168
6.875000	-5.708131	-14.283891	569.844566	570.052140
6.880000	-5.474036	-13.666024	572.324661	572.513968
6.885000	-5.434672	-12.929730	574.292633	574.463874
6.890000	-5.707536	-12.041033	575.660751	575.814956
6.895000	-5.901077	-11.693587	575.915619	576.064547
6.900000	-6.445911	-11.925905	574.629120	574.789007
6.905000	-6.094916	-11.346140	577.793808	577.937339
6.910000	-5.861118	-11.307627	577.791458	577.931816
6.915000	-5.004653	-10.611910	582.240608	582.358811
6.920000	-4.147890	-10.340665	584.209076	584.315308
6.925000	-4.342324	-10.261988	583.524727	583.631109
6.930000	-4.653956	-10.649185	580.786987	580.903253
6.935000	-4.420753	-10.455792	581.729439	581.840190
6.940000	-4.342026	-9.951404	581.473701	581.575059
6.945000	-5.004653	-10.609846	576.940720	577.059970
6.950000	-4.615783	-9.564620	579.165726	579.263088
6.955000	-5.277219	-8.790637	578.910324	579.001112
6.960000	-5.977720	-8.017479	579.937439	580.023660
6.965000	-6.755756	-7.397964	579.853554	579.940095
6.970000	-7.729418	-7.398789	577.973877	578.072909
6.975000	-8.428728	-6.431414	579.603073	579.700034
6.980000	-8.196121	-5.541066	582.342690	582.426723
6.985000	-8.818789	-5.463214	578.495445	578.588453
6.990000	-8.780021	-4.844936	578.411987	578.498910
6.995000	-8.859046	-4.766671	576.528206	576.615969
7.000000	-8.469878	-4.263520	577.300377	577.378248
7.005000	-8.859046	-4.225007	576.018143	576.101757
7.010000	-8.391450	-3.955001	578.754395	578.828738
7.015000	-7.652776	-3.334246	581.751358	581.811245
7.020000	-7.651883	-3.413749	581.236923	581.297313
7.025000	-8.041348	-3.606729	578.414742	578.481880
7.030000	-8.157353	-3.837810	577.047707	577.118122
7.035000	-7.924746	-3.991863	576.792671	576.860921
7.040000	-7.847210	-4.842047	572.689323	572.763551
7.045000	-7.574050	-4.879323	572.006699	572.077650
7.050000	-7.419276	-5.613141	568.415459	568.491589
7.055000	-7.341443	-5.884386	566.791794	566.869880
7.060000	-7.108537	-6.231832	564.997185	565.076265
7.065000	-7.342336	-6.812009	562.173904	562.263116
7.070000	-7.070961	-6.346135	563.030113	563.110274
7.075000	-6.759627	-6.501013	562.346901	562.425100
7.080000	-7.226925	-6.501013	560.122894	560.207237
7.085000	-6.877717	-6.423161	559.268036	559.347205
7.090000	-7.345611	-6.539526	556.186478	556.273423
7.095000	-7.346207	-6.346135	554.646980	554.731929
7.100000	-7.308630	-6.307621	551.991913	552.076330
7.105000	-7.114195	-5.920836	552.248367	552.325925
7.110000	-7.193815	-5.650829	551.046577	551.122503
7.115000	-6.648981	-4.103690	556.863335	556.918147
7.120000	-7.271947	-3.718555	555.063446	555.123534
7.125000	-7.233774	-2.830271	556.513359	556.567567
7.130000	-6.298879	-1.362221	561.473404	561.510387
7.135000	-6.533273	-0.627578	561.726089	561.764432
7.140000	-5.872135	0.726995	565.487679	565.518634
7.145000	-5.561993	1.537015	566.596756	566.626140
7.150000	-5.640422	1.922975	566.249878	566.281234
7.155000	-5.561993	2.231082	566.161530	566.193245
7.160000	-5.134355	3.429951	568.896469	568.929977
7.165000	-4.783956	3.815910	569.918961	569.951813
7.170000	-4.628885	3.892525	569.489662	569.521776
7.175000	-4.083753	4.279309	570.855850	570.886496
7.180000	-3.500746	4.317822	569.998383	570.025486
7.185000	-3.150347	3.931038	568.456154	568.478475
7.190000	-2.527680	3.659381	567.342049	567.359481
7.195000	-1.555506	3.853599	568.623650	568.638835
7.200000	-1.088803	3.195982	565.884476	565.894548
7.205000	-0.895262	2.886223	564.513580	564.521668
7.210000	-0.544565	2.731757	564.768944	564.775813
7.215000	-0.584226	2.422411	563.569183	563.574692
7.220000	-0.739893	2.074141	561.427132	561.431451
7.225000	-0.351024	2.189681	562.884537	562.888905
7.230000	-0.585119	2.538364	563.396553	563.402575
7.235000	-2.025187	2.266708	558.946732	558.954996
7.240000	-2.570318	2.807546	558.431030	558.444003
7.245000	-3.348057	3.619629	559.455803	559.477530
7.250000	-3.270819	4.586178	561.338585	561.366848
7.255000	-3.621516	5.205282	561.849678	561.885461
7.260000	-2.454015	6.790935	566.811234	566.857225
7.265000	-2.570914	6.713083	563.986496	564.032306
7.270000	-2.493378	7.331361	562.787079	562.840352
7.275000	-1.754705	8.029142	563.639580	563.699496
7.280000	-2.143574	7.679633	561.412369	561.468984
7.285000	-1.287704	8.104931	563.464005	563.523764
7.290000	-0.158971	8.337663	565.855202	565.916647
7.295000	0.385863	7.949227	564.823639	564.879706
7.300000	0.970358	7.562442	564.904472	564.955923
7.305000	0.892823	7.135906	565.072624	565.118385
7.310000	1.204157	7.212933	567.123489	567.170634
7.315000	1.165389	6.864249	568.405380	568.448021
7.320000	0.465781	6.168118	567.720634	567.754332
7.325000	0.661109	5.858360	569.346695	569.377218
7.330000	0.622341	5.278595	569.606194	569.630992
7.335000	-0.116928	4.350146	566.782265	566.798971
7.340000	-0.505201	3.732693	565.328827	565.341375
7.345000	0.117466	3.733106	565.758492	565.770820
7.350000	-0.155398	3.501613	566.015915	566.026767
7.355000	0.351264	3.617153	566.871841	566.883490
7.360000	0.429991	3.463512	566.015488	566.026248
7.365000	1.169260	3.617566	568.498001	568.510713
7.370000	0.779497	2.882097	565.245407	565.253292
7.375000	0.898182	2.882923	566.102364	566.110417
7.380000	1.519957	3.193093	569.096603	569.107591
7.385000	0.664384	2.264644	563.707756	563.712697
7.390000	1.521148	2.612916	566.617279	566.625345
7.395000	1.794309	2.496963	567.043640	567.051977
7.400000	1.405738	2.187617	566.188995	566.194967
7.405000	1.561702	1.606614	565.590126	565.594564
7.410000	1.640429	1.530413	566.190422	566.194867
7.415000	2.341526	1.995875	568.587318	568.595643
7.420000	2.303651	1.648016	569.528816	569.535860
7.425000	1.953549	1.067014	567.392990	567.397356
7.430000	1.019846	0.410222	564.568550	564.569620
7.435000	0.942310	0.294682	565.682991	565.683853
7.440000	0.786643	-0.053177	564.060112	564.060663
7.445000	-0.186126	-0.671867	561.665665	561.666097
7.450000	0.319940	-0.321946	563.550789	563.550972
7.455000	0.086738	-0.514925	560.986092	560.986335
7.460000	-0.613763	-1.056176	558.250038	558.251375
7.465000	-0.963865	-0.784520	557.909874	557.911258
7.470000	-1.469633	-0.358808	558.167816	558.169866
7.475000	-1.664663	-0.088389	559.367477	559.369961
7.480000	-1.937229	0.337322	560.734627	560.738075
7.485000	-2.520534	0.374597	559.451904	559.457708
7.490000	-3.026302	0.761795	559.364136	559.372841
7.495000	-2.987832	1.147755	560.303764	560.312906
7.500000	-2.442998	2.115129	562.956581	562.965855
7.505000	-2.909998	1.766446	561.328964	561.339286
7.510000	-1.587128	2.424062	565.349846	565.357270
7.515000	-2.326694	1.881986	561.153206	561.161185
7.520000	-1.353032	2.307283	565.431328	565.437654
7.525000	-1.547467	1.803308	563.289688	563.294700
7.530000	-1.392097	1.957362	565.683945	565.689044
7.535000	-0.924204	2.228194	567.819496	567.824620
7.540000	-0.612275	2.189681	568.759392	568.763936
7.545000	0.321429	2.538364	571.324585	571.330314
7.550000	0.438924	2.382661	571.749138	571.754271
7.555000	0.556120	2.344559	572.601402	572.606472
7.560000	-0.377583	1.375534	568.662598	568.664387
7.565000	0.245085	1.414047	571.141434	571.143237
7.570000	0.945883	1.684466	573.962379	573.965631
7.575000	0.907413	1.606614	575.242981	575.245940
7.580000	1.490717	1.799594	578.064018	578.068742
7.585000	0.713276	1.488598	577.291565	577.293925
7.590000	1.179979	1.759843	579.427628	579.431502
7.595000	0.557610	1.178840	576.685608	576.687082
7.600000	0.985247	1.797944	580.536018	580.539639
7.605000	0.167549	1.062062	575.825546	575.826550
7.610000	0.790514	1.836457	580.272652	580.276096
7.615000	0.010989	1.295206	575.818939	575.820396
7.620000	-0.495078	1.372233	574.105934	574.107788
7.625000	-0.067440	1.837282	576.243172	576.246105
7.630000	-0.261875	1.643890	574.441765	574.444177
7.635000	-0.807602	1.489011	572.646790	572.649295
7.640000	-1.352734	1.566864	572.131569	572.135314
7.645000	-1.158597	2.226131	573.073822	573.079317
7.650000	-2.015956	1.722568	568.109818	568.116006
7.655000	-2.210093	1.683641	565.282043	565.288871
7.660000	-1.043187	2.418698	568.447350	568.453452
7.665000	-1.394182	2.612091	565.621918	565.629667
7.670000	-0.771812	3.191854	566.900902	566.910413
7.675000	-1.161575	3.229544	565.357147	565.367565
7.680000	-1.277879	3.809308	566.806976	566.821217
7.685000	-0.812069	4.776270	570.483002	570.503574
7.690000	-1.668237	4.851646	570.134300	570.157383
7.695000	-1.746368	5.006113	570.645256	570.669886
7.700000	-1.279665	5.817784	572.951004	572.981969
7.705000	-1.746666	5.585878	570.037750	570.067794
7.710000	-1.552528	5.779270	570.804619	570.835986
7.715000	-1.591296	5.856710	568.745552	568.777932
7.720000	-0.969522	5.856710	567.715530	567.746567
7.725000	-0.463754	5.895635	568.310440	568.341209
7.730000	-0.036712	5.702656	567.282021	567.310684
7.735000	0.118657	5.471987	564.626549	564.653076
7.740000	-0.426475	4.351385	559.492645	559.509729
7.745000	-0.426773	4.081790	557.181084	557.196198
7.750000	-0.621803	3.774508	555.213387	555.226565
7.755000	-0.817429	3.155817	551.448730	551.458366
7.760000	-0.272594	3.621693	552.304634	552.316576
7.765000	-0.311660	3.313585	548.456497	548.466595
7.770000	-0.662357	3.199695	546.575195	546.584962
7.775000	-1.481246	2.968203	541.786804	541.796960
7.780000	-2.182938	2.815798	537.938774	537.950573
7.785000	-1.987609	2.777285	536.913177	536.924039
7.790000	-1.989099	2.624057	535.545471	535.555594
7.795000	-2.261664	2.703560	533.066330	533.077984
7.800000	-3.119024	1.776349	527.078087	527.090309
7.805000	-3.625685	1.002779	521.690025	521.703588
7.810000	-3.042380	0.579957	520.323044	520.332262
7.815000	-2.576869	0.348463	519.814194	519.820698
7.820000	-3.237709	-0.306265	517.166389	517.176615
7.825000	-4.485128	-1.580922	510.155724	510.177889
7.830000	-5.575094	-2.120935	505.543068	505.578257
7.835000	-6.316447	-2.696986	500.500771	500.547892
7.840000	-6.707699	-2.423266	496.570702	496.621916
7.845000	-8.150148	-2.844026	489.304626	489.380763
7.850000	-8.231257	-2.142530	487.343025	487.417242
7.855000	-9.557701	-2.096590	479.563515	479.663330
7.860000	-11.703034	-2.630826	468.019691	468.173380
7.865000	-12.524601	-1.849004	461.352737	461.526416
7.870000	-13.112075	-1.298261	452.717285	452.908989
7.875000	-13.855512	-0.709831	443.053074	443.270240
7.880000	-14.091692	0.263321	437.157314	437.384456
7.885000	-14.327575	0.382162	428.775158	429.014640
7.890000	-14.873003	0.190007	418.768429	419.032504
7.895000	-13.512259	1.082006	413.724594	413.946605
7.900000	-13.124580	0.541992	400.978123	401.193224
7.905000	-12.579449	-0.192652	390.115452	390.318262
7.910000	-12.502211	-0.772829	378.655426	378.862553
7.915000	-11.568209	-0.578611	372.840984	373.020854
7.920000	-11.567913	-1.586975	360.353649	360.542768
7.925000	-11.139084	-1.820118	351.373901	351.555132
7.930000	-10.516417	-2.324508	339.914406	340.084992
7.935000	-10.127248	-2.982950	326.570930	326.741537
7.940000	-9.308956	-3.604115	316.909351	317.066528
7.945000	-8.607859	-3.567665	310.581375	310.721119
7.950000	-8.956770	-4.033954	303.141567	303.300686
7.955000	-8.722971	-4.267510	295.701523	295.860934
7.960000	-8.993751	-4.385113	291.427193	291.598912
7.965000	-10.237895	-5.045619	286.809120	287.036137
7.970000	-11.286711	-4.622796	286.980762	287.239827
7.975000	-11.479955	-3.270287	290.573689	290.818762
7.980000	-12.490896	-2.343076	286.807880	287.089311
7.985000	-12.023300	-0.912301	288.347771	288.599773
7.990000	-11.946658	-0.410390	288.002621	288.250586
7.995000	-10.778560	0.711452	290.397934	290.598767
8.000000	-9.300023	0.401281	287.315529	287.466284
8.005000	-7.275460	0.206651	285.772335	285.865007
8.010000	-4.667593	0.204176	288.335804	288.373653
8.015000	-2.136071	0.626998	292.352890	292.361366
8.020000	-1.044617	-0.225662	291.409050	291.411010
8.025000	1.447840	-0.383430	297.397724	297.401496
8.030000	3.474487	-1.508572	303.642616	303.666242
8.035000	5.188907	-2.790244	311.082047	311.137831
8.040000	6.866940	-3.725708	322.541027	322.635630
8.045000	7.417135	-4.975882	333.394547	333.514163
8.050000	8.160870	-4.676852	349.641193	349.767690
8.055000	8.361259	-3.219119	369.136372	369.245087
8.060000	7.393255	-1.452865	390.515717	390.588397
8.065000	5.686875	0.118758	409.584385	409.623880
8.070000	4.214887	0.958626	425.066395	425.088372
8.075000	2.896185	1.568239	437.127022	437.139429
8.080000	2.320027	1.094111	450.559601	450.566902
8.085000	3.028866	0.539243	467.836128	467.846244
8.090000	4.441480	-0.211082	485.107773	485.128151
8.095000	7.564941	-0.110809	502.292397	502.349373
8.100000	11.195064	1.343623	520.416229	520.538362
8.105000	15.875195	4.230480	542.734489	542.983098
8.110000	18.490803	6.266328	556.664642	557.006913
8.115000	20.406506	8.305064	571.884468	572.308697
8.120000	21.971213	10.189746	588.905388	589.403191
8.125000	22.407486	10.989038	606.525887	607.039130
8.130000	21.287685	11.635513	621.413094	621.886472
8.135000	19.388060	12.360254	632.965553	633.383031
8.140000	19.473339	14.247411	648.536705	648.985406
8.145000	20.571046	15.666632	664.873444	665.376065
8.150000	24.005543	17.123953	684.975281	685.609678
8.155000	27.089939	17.419681	706.188118	706.922180
8.160000	28.500469	16.593156	723.639267	724.390363
8.165000	29.560301	15.535962	740.326080	741.078864
8.170000	30.734950	14.947118	757.099747	757.870754
8.175000	31.791509	14.474229	771.651749	772.441988
8.180000	33.236637	13.424050	781.842590	782.663858
8.185000	35.032463	12.488998	796.395554	797.263524
8.190000	36.828290	10.936083	806.929779	807.843790
8.195000	39.713488	9.573669	821.398727	822.413938
8.200000	41.974826	8.292410	831.675247	832.775100
8.205000	43.456637	8.094479	839.470001	840.633025
8.210000	45.443027	9.097067	852.828445	854.086754
8.215000	47.506657	8.860620	861.478668	862.833060
8.220000	50.077840	8.469296	873.895859	875.370488
8.225000	53.387697	8.659389	890.678207	892.318833
8.230000	55.024281	7.687887	904.210022	905.915305
8.235000	55.842875	6.949118	917.828217	919.551713
8.240000	56.505499	6.867550	929.651062	931.392040
8.245000	57.519122	7.214170	945.842178	947.616969
8.250000	56.818619	6.126719	958.783096	960.484731
8.255000	55.612947	4.886860	970.527039	972.131377
8.260000	54.797035	3.569977	984.325836	985.856385
8.265000	53.473567	1.558199	993.419449	994.858810
8.270000	52.499906	-0.181921	1002.348724	1003.722690
8.275000	50.552284	-1.416826	1008.797318	1010.064141
8.280000	46.890539	-2.496029	1010.974350	1012.064271
8.285000	43.541022	-3.536303	1012.039551	1012.981924
8.290000	40.425004	-4.769970	1012.847717	1013.665345
8.295000	37.853224	-5.887274	1010.658966	1011.384730
8.300000	36.839306	-7.274168	1009.920410	1010.618268
8.305000	34.852917	-9.127766	1003.534073	1004.180600
8.310000	33.371400	-10.708467	996.032532	996.648948
8.315000	32.473487	-12.097838	989.727310	990.333799
8.320000	32.393866	-13.061913	986.583389	987.201479
8.325000	31.769413	-14.761455	980.186401	980.812203
8.330000	31.339692	-16.113140	973.613953	974.251476
8.335000	31.180155	-16.459761	969.438293	970.079239
8.340000	29.425775	-16.960436	960.553177	961.153442
8.345000	28.682042	-15.604212	957.058014	957.614846
8.350000	25.914041	-15.176025	945.429321	945.906153
8.355000	24.235113	-13.123672	942.957062	943.359736
8.360000	21.661845	-10.761559	937.057983	937.370104
8.365000	18.662431	-7.275957	934.494186	934.708837
8.370000	15.623353	-3.326954	933.813919	933.950530
8.375000	11.535162	-0.189623	931.677521	931.748946
8.380000	9.704141	3.876982	936.305527	936.363840
8.385000	6.122017	6.742657	936.656509	936.700784
8.390000	1.217319	9.145757	935.639053	935.684543
8.395000	-4.778238	10.193460	931.116913	931.184967
8.400000	-9.603613	11.203888	930.872864	930.989820
8.405000	-13.614269	11.515710	931.482483	931.653141
8.410000	-18.401471	11.092061	927.900757	928.149483
8.415000	-21.943636	11.518598	931.677490	932.007053
8.420000	-26.069107	11.559999	931.002579	931.439227
8.425000	-29.884435	10.361956	926.903549	927.443065
8.430000	-32.376594	9.552350	925.965942	926.581037
8.435000	-34.167060	7.736853	924.174347	924.838078
8.440000	-36.075022	4.836379	919.043289	919.763755
8.445000	-37.397593	2.477982	912.967819	913.736811
8.450000	-37.670158	0.158510	912.282074	913.059499
8.455000	-40.394924	-4.134637	902.095123	903.008558
8.460000	-41.523956	-7.229329	900.040024	901.026385
8.465000	-41.834400	-10.052363	899.434830	900.463314
8.470000	-42.962237	-13.884587	895.668045	896.805320
8.475000	-43.313530	-16.322075	896.095322	897.289974
8.480000	-45.027355	-17.716399	894.986649	896.293721
8.485000	-46.236900	-19.072209	892.250732	893.651481
8.490000	-48.224185	-20.815217	891.744629	893.290170
8.495000	-51.028867	-23.100302	892.262527	894.019008
8.500000	-53.833549	-24.455287	897.062943	899.009474
8.505000	-56.249363	-25.655392	900.751099	902.870274
8.510000	-58.665775	-25.809860	907.092392	909.353853
8.515000	-60.731785	-25.693906	914.376495	916.751276
8.520000	-63.965891	-25.384147	919.093857	921.666701
8.525000	-66.419876	-23.449399	929.032333	931.698745
8.530000	-67.744537	-20.819757	940.510300	943.176764
8.535000	-69.262140	-17.456296	953.530396	956.201956
8.540000	-71.130438	-13.552821	963.641266	966.357960
8.545000	-73.814054	-10.654822	970.840714	973.701048
8.550000	-76.031565	-7.330289	977.699020	980.678289
8.555000	-77.937441	-4.004516	983.097824	986.190455
8.560000	-79.877321	1.332621	996.021606	999.220297
8.565000	-80.892731	2.493801	991.069412	994.368359
8.570000	-81.864902	6.018742	988.337128	991.740070
8.575000	-84.434004	8.539446	983.892838	987.546019
8.580000	-85.331020	11.333871	976.108093	979.896346
8.585000	-85.021477	14.287300	960.190422	964.053124
8.590000	-84.753078	17.244445	942.986877	946.944933
8.595000	-82.773533	21.522186	925.181976	929.126661
8.600000	-79.783943	25.224291	897.615425	901.507179
8.605000	-74.382116	29.086637	866.964462	870.635464
8.610000	-68.010193	31.094563	823.985901	827.372361
8.615000	-58.292627	32.833307	778.260643	781.131029
8.620000	-48.149208	32.212001	719.437920	721.766499
8.625000	-34.663420	31.985735	659.238579	660.923705
8.630000	-19.391631	30.992088	587.653259	588.789349
8.635000	-4.345599	29.475897	505.363560	506.241089
8.640000	11.602216	29.646870	413.916439	415.138973
8.645000	24.598911	29.685795	301.329416	303.785730
8.650000	32.966153	27.629728	177.109368	182.257778
8.655000	31.641199	22.668648	86.213331	94.592661
8.660000	22.059648	15.353296	41.035514	49.053697
8.665000	12.049861	7.606044	20.838025	25.244293
8.670000	4.076847	2.043742	2.703900	5.301758
8.675000	2.570857	0.736073	1.253021	2.953163
8.680000	1.797287	1.152293	4.677956	5.142110
8.685000	-0.067738	0.294269	1.594402	1.622745
8.690000	0.321131	0.334846	1.084887	1.179926
8.695000	0.399858	0.910484	4.078121	4.197612
8.700000	-0.066547	0.135264	0.743425	0.758555
8.705000	0.088822	0.095925	0.314801	0.340868
8.710000	-0.337624	-0.138044	-1.054115	1.115439
8.715000	0.674509	0.557261	2.795985	2.929681
8.720000	-0.025099	0.206926	0.999111	1.020623
8.725000	0.675401	0.709664	3.995846	4.114192
8.730000	0.442497	0.593298	2.453516	2.562723
8.735000	-0.140807	0.205276	-0.113436	0.273555
8.740000	-0.335540	-0.182334	-1.225086	1.283226
8.745000	-0.062080	0.242964	0.229269	0.339779
8.750000	0.677188	0.860829	3.908491	4.059053
8.755000	0.444283	0.704712	2.712078	2.837142
8.760000	0.561778	0.471982	2.540343	2.644183
8.765000	0.639313	0.587522	4.080470	4.171827
8.770000	0.445772	0.586696	2.967481	3.057592
8.775000	0.367045	0.354378	2.283646	2.339946
8.780000	0.172908	0.199499	0.828429	0.869478
8.785000	0.290403	0.469918	2.198592	2.266929
8.790000	0.445772	0.585871	2.968871	3.058783
8.795000	0.562969	0.623147	3.654237	3.749493
8.800000	0.329468	0.235949	1.770401	1.816189
8.805000	-0.253240	0.002805	-0.369464	0.447931
8.810000	0.524201	0.621909	2.283264	2.423809
8.815000	0.525094	0.582983	2.455624	2.577922
8.820000	0.135927	0.312563	1.514662	1.552537
8.825000	0.135927	0.233886	0.573029	0.633673
8.830000	0.486922	0.505130	2.627169	2.719240
8.835000	0.719827	0.775550	2.969208	3.152114
8.840000	0.720720	0.891090	4.167962	4.322659
8.845000	0.331255	0.541994	1.085465	1.257665
8.850000	0.837619	1.006630	4.508563	4.694896
8.855000	0.370321	0.231822	1.858903	1.909555
8.860000	0.525988	0.541581	2.713376	2.816448
8.865000	0.176481	0.192896	1.173826	1.202590
8.870000	0.876387	1.004980	4.253927	4.458019
8.875000	0.254315	0.346538	1.600483	1.657199
8.880000	0.760679	0.771836	3.397926	3.566548
8.885000	0.721613	0.888202	4.938003	5.068876
8.890000	0.177077	0.308024	2.114784	2.144423
8.895000	0.644078	0.578031	3.055075	3.175286
8.900000	-0.133959	0.036367	-1.052820	1.061931
8.905000	-0.329287	-0.080411	-1.394907	1.435501
8.910000	-0.251156	0.190421	-0.110471	0.333981
8.915000	-0.055828	0.035129	0.660428	0.663714
8.920000	0.177375	0.228109	0.916359	0.960838
8.925000	0.060476	-0.082062	0.232287	0.253671
8.930000	-0.172429	-0.120575	-1.137539	1.156834
8.935000	0.528965	0.537867	2.713803	2.816706
8.940000	-0.445293	-0.391820	-1.907532	1.997620
8.945000	0.450238	0.460015	2.799525	2.872572
8.950000	0.644971	0.691921	3.398309	3.527498
8.955000	0.528667	0.380925	1.858567	1.969483
8.960000	0.801233	0.614069	3.569711	3.709702
8.965000	0.061071	0.226871	1.088240	1.113313
8.970000	-0.365673	-0.276279	-1.137206	1.226085
8.975000	0.100435	-0.006273	0.317723	0.333278
8.980000	-0.055232	0.149019	0.573460	0.595074
8.985000	0.645566	0.496465	2.884441	2.997204
8.990000	0.762465	0.767710	4.255077	4.390491
8.995000	0.257293	0.264147	1.600004	1.641946
9.000000	-0.405036	-0.356195	-2.250719	2.314447
9.005000	-0.092809	0.225221	1.258489	1.281847
9.010000	-0.054041	-0.007924	0.660238	0.662493
9.015000	0.762465	0.612005	3.826982	3.949898
9.020000	-12.631198	-5.587832	64.037868	65.510453
9.025000	-58.966032	-2.815965	196.225439	204.913019
9.030000	-64.833672	4.940091	226.787457	235.924480
9.035000	-32.106052	15.501574	210.508427	213.506195
9.040000	-23.331061	35.723740	630.436775	631.878985
9.045000	-165.845337	30.140942	693.010124	713.215384
9.050000	-19.356971	67.816845	731.100143	734.493864
9.055000	71.627340	79.613647	692.872139	701.099572
9.060000	42.729638	60.029018	836.758392	839.996376
9.065000	-5.756783	36.158117	951.299911	952.004239
9.070000	-24.737423	18.758711	973.056686	973.551819
9.075000	-35.820798	-0.490992	989.489227	990.137516
9.080000	-55.045356	-22.793156	998.389786	1000.165828
9.085000	-76.491593	-46.173697	1009.685898	1013.631386
9.090000	-89.194529	-69.451631	1041.345932	1047.463862
9.095000	-85.896580	-83.836397	1106.027802	1112.521578
9.100000	-53.239942	-84.510107	1196.709503	1200.870553
9.105000	-22.836608	-79.129366	1302.258682	1304.860392
9.110000	6.055080	-63.948471	1475.478943	1476.876495
9.115000	132.116009	-14.571915	1813.024200	1817.889912
9.120000	321.837952	65.613876	2149.294403	2174.247290
9.125000	259.721870	94.582998	2029.684906	2048.419442
9.130000	97.610245	89.506512	1809.708160	1814.547547
9.135000	-30.223998	72.609015	1596.033356	1597.969972
9.140000	-82.860838	58.585174	1415.183929	1418.817710
9.145000	-74.978224	55.764204	1282.564743	1285.964113
9.150000	-50.088851	53.133323	1195.831528	1198.058882
9.155000	-41.004733	46.164180	1144.845917	1146.509787
9.160000	-44.813210	41.590297	1106.868958	1108.556208
9.165000	-52.014738	41.893864	1071.710236	1073.789299
9.170000	-57.272515	41.341062	1044.066772	1046.453367
9.175000	-58.522913	42.872933	1034.881424	1037.421121
9.180000	-56.153904	45.721277	1030.295898	1032.837516
9.185000	-47.010116	48.452429	1027.066528	1029.282878
9.190000	-37.045649	48.515838	1019.814697	1021.639948
9.195000	-28.521250	44.408654	1010.170364	1011.548197
9.200000	-22.296957	36.483691	993.171951	994.091917
9.205000	-14.321263	29.263936	981.490860	982.031458
9.210000	-6.931254	21.812273	967.770859	968.041452
9.215000	-1.215708	14.907228	949.015335	949.133189
9.220000	2.943171	8.349628	927.197189	927.239455
9.225000	5.044375	0.888477	899.400406	899.414991
9.230000	8.867147	-5.542717	877.351974	877.414289
9.235000	9.383635	-13.024089	847.183945	847.336011
9.240000	7.996033	-19.891722	821.212082	821.491875
9.245000	3.609609	-26.296781	792.930344	793.374489
9.250000	-0.464291	-31.231313	768.839340	769.473548
9.255000	-3.840070	-35.195996	744.144775	744.986544
9.260000	-6.399938	-38.152728	721.497604	722.534001
9.265000	-9.817760	-41.454842	696.276054	697.578122
9.270000	-12.690750	-44.136614	676.695313	678.251901
9.275000	-14.474963	-45.732170	661.132843	662.870720
9.280000	-17.233733	-46.978630	646.337868	648.272036
9.285000	-20.421033	-48.029222	634.450081	636.593065
9.290000	-22.870255	-48.499224	620.079124	622.393239
9.295000	-23.763404	-47.457710	610.669411	612.971502
9.300000	-24.152869	-45.833544	599.547188	601.781443
9.305000	-24.814006	-44.440457	584.994934	587.205043
9.310000	-23.492624	-41.614534	578.318016	580.289066
9.315000	-21.976213	-38.437863	571.210060	572.923517
9.320000	-19.331067	-34.718292	566.152985	567.545815
9.325000	-17.308887	-31.423607	554.676163	555.835125
9.330000	-13.379043	-26.928813	550.128044	550.949203
9.335000	-9.956456	-23.786941	539.331696	539.947801
9.340000	-5.521140	-20.682759	533.837318	534.266359
9.345000	-1.048547	-18.158754	528.089195	528.402345
9.350000	2.493321	-16.331705	524.736427	524.996438
9.355000	5.839266	-15.551119	521.214409	521.479045
9.360000	7.434703	-15.197484	514.182037	514.460305
9.365000	8.639185	-14.997489	510.492218	510.785537
9.370000	8.248827	-15.223618	506.974564	507.270155
9.375000	6.884211	-16.417121	502.514893	502.830122
9.380000	6.299716	-16.995235	502.760788	503.087402
9.385000	6.301205	-17.267718	507.886520	508.219044
9.390000	6.809058	-16.730594	517.375099	517.690322
9.395000	7.122178	-17.353411	522.929008	523.265338
9.400000	6.227540	-18.324499	526.518036	526.873620
9.405000	6.342950	-18.520368	529.937111	530.298575
9.410000	6.305075	-19.218974	533.014854	533.398498
9.415000	7.392957	-19.064920	533.442474	533.834244
9.420000	7.470195	-19.529557	532.930573	533.340606
9.425000	6.299716	-20.959093	526.257202	526.712078
9.430000	5.402696	-21.690849	522.924072	523.401631
9.435000	3.453882	-23.273200	515.227715	515.764645
9.440000	2.516605	-23.230560	511.981071	512.514009
9.445000	1.891854	-24.077856	505.824211	506.400489
9.450000	1.344340	-24.654321	498.125488	498.737050
9.455000	1.849215	-24.226134	494.107635	494.704640
9.460000	2.665127	-23.257520	489.488113	490.047578
9.465000	2.120591	-23.606618	480.335861	480.920273
9.470000	2.744151	-22.717508	478.370651	478.917629
9.475000	2.977651	-22.370885	475.290245	475.825745
9.480000	2.822282	-21.675581	473.497650	474.001921
9.485000	1.849215	-21.521940	470.160599	470.656565
9.490000	0.138071	-20.981514	470.333191	470.800970
9.495000	-1.184800	-20.170669	474.441383	474.871441
9.500000	-2.468307	-19.244283	477.090721	477.485069
9.505000	-3.090379	-17.736895	478.802208	479.140587
9.510000	-3.829350	-16.888774	477.686447	478.000247
9.515000	-2.272681	-13.717056	484.183197	484.382794
9.520000	-1.611842	-11.242291	483.067619	483.201109
9.525000	0.528727	-7.528497	486.057739	486.116327
9.530000	2.473372	-4.742325	485.968391	485.997824
9.535000	4.340480	-2.459717	482.455399	482.481193
9.540000	6.635823	0.558361	480.571602	480.617738
9.545000	7.958396	2.223104	474.838539	474.910430
9.550000	8.619831	3.811646	468.080551	468.175429
9.555000	7.878181	4.278347	460.895248	460.982429
9.560000	6.359684	5.015466	458.332718	458.404277
9.565000	3.439888	4.398838	452.773193	452.807627
9.570000	0.441961	3.975190	449.351196	449.368997
9.575000	-1.621370	4.015354	447.470039	447.490992
9.580000	-2.750997	4.402140	448.667366	448.697395
9.585000	-4.423672	4.593469	450.717865	450.762978
9.590000	-4.462141	5.362499	458.241547	458.294646
9.595000	-4.032420	5.782433	467.303627	467.356798
9.600000	-3.328346	6.665354	482.015160	482.072732
9.605000	-4.454996	6.578424	495.611732	495.675410
9.610000	-4.996256	7.264650	512.971031	513.046798
9.615000	-4.643475	7.834512	529.560448	529.638753
9.620000	-2.577167	9.762247	547.779770	547.872813
9.625000	-1.098034	9.793745	554.788994	554.876519
9.630000	0.342927	10.947498	566.079155	566.185107
9.635000	0.733881	12.141414	578.998909	579.126661
9.640000	-0.004793	12.407294	585.413811	585.545276
9.645000	-0.548436	13.292278	591.743439	591.892966
9.650000	-0.743168	14.525533	597.474823	597.651828
9.655000	-0.897644	15.527295	603.721771	603.922081
9.660000	-0.234720	17.419817	610.739975	610.988398
9.665000	0.505145	19.699950	618.956787	619.270416
9.670000	-0.738702	20.585759	622.038864	622.379842
9.675000	-2.293286	21.044620	629.658432	630.014187
9.680000	-3.769144	22.432754	639.670425	640.074752
9.685000	-4.272828	23.819238	646.687363	647.139983
9.690000	-5.360412	24.395700	647.199417	647.681225
9.695000	-5.357732	25.629369	657.378967	657.900203
9.700000	-5.704856	25.818222	664.818176	665.343771
9.705000	-5.273944	26.125092	671.228775	671.757697
9.710000	-3.909029	26.121790	677.216492	677.731366
9.715000	-4.333689	25.192928	676.442337	676.925180
9.720000	-2.852769	25.463760	680.806351	681.288359
9.725000	-2.696210	25.582603	679.523605	680.010345
9.730000	-2.695614	25.351934	675.161728	675.642913
9.735000	-2.734977	25.007789	666.779083	667.253487
9.740000	-2.228911	24.779597	659.853333	660.322207
9.745000	-3.046311	23.817174	651.387367	651.829763
9.750000	-4.564808	22.042667	642.324951	642.719270
9.755000	-5.421571	20.691397	637.880531	638.239061
9.760000	-7.367704	18.993092	629.414459	629.744061
9.765000	-8.496736	17.564794	623.002853	623.308328
9.770000	-9.275963	16.329887	616.586319	616.872270
9.775000	-8.887392	16.565094	614.278854	614.566432
9.780000	-8.965821	16.064832	609.487892	609.765492
9.785000	-8.071481	15.757137	605.809807	606.068444
9.790000	-7.567201	15.256463	599.307808	599.549723
9.795000	-7.061730	14.793889	593.061096	593.287612
9.800000	-7.062028	14.177261	586.128441	586.342405
9.805000	-6.402082	14.565284	584.416862	584.633392
9.810000	-5.897504	14.646026	579.450722	579.665788
9.815000	-5.353266	13.836005	573.202087	573.394040
9.820000	-3.991627	13.684014	570.204254	570.382395
9.825000	-3.564287	12.912921	561.129578	561.289453
9.830000	-2.319846	12.102901	555.393860	555.530559
9.835000	-1.152642	11.525199	552.567619	552.689002
9.840000	-0.336433	10.715179	546.917679	547.022738
9.845000	0.013073	9.441760	540.752960	540.835383
9.850000	0.790514	8.476448	539.896652	539.963767
9.855000	1.100955	7.279643	535.270142	535.320773
9.860000	1.178192	6.389708	531.501266	531.540979
9.865000	2.111300	6.274993	530.469688	530.511002
9.870000	2.966277	6.197966	530.292488	530.337003
9.875000	3.510813	5.771843	531.058830	531.101799
9.880000	3.939344	5.423984	534.818130	534.860141
9.885000	3.823040	4.996209	537.295723	537.332552
9.890000	3.823934	4.337767	539.518585	539.549574
9.895000	2.150961	2.634098	537.891815	537.902565
9.900000	1.762092	2.090371	543.024437	543.031319
9.905000	0.945883	1.431929	547.131554	547.134245
9.910000	0.557907	0.849688	549.952736	549.953675
9.915000	-0.258897	0.151082	551.062416	551.062498
9.920000	0.209294	0.382575	555.939186	555.939357
9.925000	-0.451545	-0.120575	556.023590	556.023787
9.930000	-0.178087	-0.198427	558.675919	558.675982
9.935000	-0.489122	-0.661414	558.586502	558.587108
9.940000	0.445772	-0.352068	563.033226	563.033513
9.945000	0.680166	-0.546699	563.289391	563.290067
9.950000	0.563862	-0.778192	563.202759	563.203579
9.955000	0.174397	-1.474735	561.575226	561.577189
9.960000	-0.914973	-2.325744	558.321907	558.327501
9.965000	-0.836842	-2.828069	559.005203	559.012983
9.970000	-0.642110	-3.137002	561.657150	561.666278
9.975000	-1.420444	-4.337521	559.428070	559.446689
9.980000	-0.835949	-4.221156	563.274300	563.290736
9.985000	-1.030384	-4.880010	560.958229	560.980402
9.990000	-0.717859	-4.957862	562.236153	562.258470
9.995000	0.877578	-4.531326	564.372276	564.391149
10.000000	0.995370	-4.724719	561.800560	561.821309
10.005000	1.695871	-4.956625	561.284058	561.308505
10.010000	2.241003	-4.839021	561.281082	561.306415
10.015000	2.280069	-5.341759	558.541519	558.571716
10.020000	2.357902	-5.765820	557.083961	557.118789
10.025000	3.018742	-5.648216	558.623451	558.660161
10.030000	2.628681	-6.497575	553.401657	553.446043
10.035000	2.589616	-6.960974	550.231461	550.281584
10.040000	3.367057	-7.191642	549.373001	549.430388
10.045000	3.562385	-7.267843	549.623482	549.683076
10.050000	3.950956	-7.230568	553.124702	553.186070
10.055000	3.989427	-7.230981	554.486084	554.547581
10.060000	4.808018	-6.497575	561.662811	561.720971
10.065000	4.808018	-6.926586	563.450974	563.514059
10.070000	4.848870	-6.774183	567.207504	567.268679
10.075000	5.782871	-6.312022	575.328644	575.392328
10.080000	5.044496	-6.933602	575.064514	575.128435
10.085000	4.850358	-6.858225	577.711655	577.772721
10.090000	5.317359	-6.278873	581.641800	581.699993
10.095000	5.396383	-6.549705	580.866737	580.928727
10.100000	5.784955	-6.473091	580.517883	580.582793
10.105000	6.525415	-6.241185	583.340591	583.410472
10.110000	6.291915	-6.396064	582.910797	582.979841
10.115000	6.096885	-6.279698	582.223083	582.288868
10.120000	5.396681	-6.937315	579.654007	579.720638
10.125000	5.318252	-6.780786	579.568291	579.632355
10.130000	4.618049	-7.361376	578.371445	578.436725
10.135000	4.578090	-6.974178	581.024551	581.084441
10.140000	2.710088	-7.901389	577.345222	577.405648
10.145000	1.815152	-8.056268	578.031929	578.090918
10.150000	-0.054041	-8.751573	574.352318	574.418992
10.155000	-1.338740	-8.945379	573.666862	573.738164
10.160000	-1.417466	-8.558593	575.205276	575.270692
10.165000	-1.690330	-7.706758	576.912933	576.966883
10.170000	-1.496193	-6.430451	579.220261	579.257887
10.175000	-1.925021	-5.890025	576.564613	576.597911
10.180000	-1.614283	-4.226932	579.041473	579.059151
10.185000	-2.354445	-4.227757	575.186165	575.206521
10.190000	-1.653646	-3.338235	577.576828	577.588842
10.195000	-1.342908	-2.797396	577.315994	577.324334
10.200000	-0.914675	-2.333585	579.278870	579.284292
10.205000	-1.225711	-2.451188	580.046127	580.052602
10.210000	-1.186646	-1.909937	582.866173	582.870510
10.215000	-2.120052	-2.452426	582.349197	582.358220
10.220000	-2.237248	-2.181594	585.255028	585.263370
10.225000	-2.430790	-1.678443	586.793076	586.800511
10.230000	-2.587052	-1.794396	585.935455	585.943914
10.235000	-2.431087	-1.522739	587.131866	587.138874
10.240000	-3.053755	-2.102917	583.793968	583.805743
10.245000	-3.170654	-2.217631	581.910683	581.923546
10.250000	-3.793917	-2.564665	576.947609	576.965783
10.255000	-3.405643	-2.834259	574.722786	574.739865
10.260000	-3.171250	-2.793682	573.782822	573.798386
10.265000	-2.627904	-2.520787	572.500626	572.512206
10.270000	-3.056137	-3.215680	566.683990	566.701355
10.275000	-2.551559	-3.212378	564.376923	564.391833
10.280000	-1.695987	-2.745265	564.890511	564.899727
10.285000	-1.620536	-2.897256	561.126671	561.136490
10.290000	-1.699561	-3.397106	555.992218	556.005194
10.295000	-2.323717	-4.091172	549.232513	549.252666
10.300000	-1.624407	-3.740013	548.720207	548.735357
10.305000	-1.393289	-3.388853	546.835938	546.848213
10.310000	-1.354819	-3.000418	543.412216	543.422188
10.315000	-0.889009	-2.069493	541.612915	541.617598
10.320000	-0.851432	-1.951476	537.160011	537.164231
10.325000	0.002651	-1.138568	536.645683	536.646891
10.330000	0.274026	-0.519052	533.304337	533.304660
10.335000	1.206836	0.488899	534.072845	534.074433
10.340000	1.244413	0.565926	529.363724	529.365489
10.345000	2.411319	1.496439	530.902214	530.909799
10.350000	2.566093	1.496439	527.651291	527.659653
10.355000	2.993432	1.845122	527.395355	527.407078
10.360000	2.680313	0.956426	522.092484	522.100240
10.365000	2.601883	0.571291	520.212769	520.219589
10.370000	2.289657	0.184918	518.078026	518.083118
10.375000	1.976834	0.107892	516.628559	516.632352
10.380000	1.664904	0.264833	514.495705	514.498467
10.385000	1.662820	0.498390	510.138958	510.141911
10.390000	1.545028	1.079806	507.664917	507.668416
10.395000	1.738569	1.740311	503.820896	503.826902
10.400000	1.112627	1.548570	495.357033	495.360703
10.405000	1.461239	1.861629	489.290035	489.295759
10.410000	1.146928	1.710464	480.313919	480.318334
10.415000	2.390179	2.487334	479.293880	479.306294
10.420000	2.309963	2.181290	470.742477	470.753199
10.425000	3.048338	3.151553	469.120796	469.141286
10.430000	2.851522	3.114691	462.108402	462.127697
10.435000	3.239201	3.196257	456.720009	456.742679
10.440000	4.055408	3.313035	453.728630	453.758848
10.445000	4.093879	3.275759	449.792709	449.823267
10.450000	4.443980	2.966001	445.686684	445.718707
10.455000	4.987326	2.773847	443.291367	443.328099
10.460000	5.182952	3.045917	440.127537	440.168592
10.465000	5.727190	3.163520	437.137371	437.186333
10.470000	5.181165	2.431352	428.757656	428.795853
10.475000	5.686338	1.853650	423.117237	423.159505
10.480000	6.229981	1.315701	418.246437	418.294903
10.485000	6.344796	0.429066	411.324280	411.373436
10.490000	6.888141	0.202525	405.769417	405.827928
10.495000	6.381182	-0.761136	394.739262	394.791570
10.500000	7.274926	-0.640645	389.271172	389.339672
10.505000	6.923931	-1.295373	377.642620	377.708310
10.510000	8.130796	-0.751233	373.632324	373.721538
10.515000	7.780099	-1.058515	361.917995	362.003157
10.520000	7.313098	-1.560015	351.660282	351.739775
10.525000	7.197391	-1.134305	341.830376	341.908021
10.530000	7.433571	-0.283295	335.676342	335.758760
10.535000	6.345689	-0.439825	328.751411	328.812943
10.540000	5.725701	0.253417	328.068195	328.118254
10.545000	4.637820	1.063849	329.094654	329.129051
10.550000	4.056600	2.222141	332.345398	332.377583
10.555000	3.551427	3.769281	333.286510	333.326744
10.560000	3.161963	4.542439	330.976105	331.022376
10.565000	2.617128	4.310945	324.817474	324.856623
10.570000	3.434528	3.886060	321.055252	321.097138
10.575000	4.758887	3.498449	324.136375	324.190185
10.580000	5.304019	2.220078	324.133881	324.184876
10.585000	6.666551	1.094523	326.097954	326.167927
10.590000	7.718345	-0.842703	326.264713	326.357084
10.595000	8.340714	-2.664801	326.001987	326.119556
10.600000	8.926103	-3.675228	331.728985	331.869405
10.605000	8.108703	-3.871509	335.915661	336.035818
10.610000	7.292494	-3.102478	342.581642	342.673295
10.615000	4.764843	0.757944	357.199596	357.232179
10.620000	1.848619	6.051202	367.543732	367.598190
10.625000	1.306763	11.077755	374.214153	374.380364
10.630000	2.592652	14.290051	377.037956	377.317569
10.635000	3.842453	15.100070	381.566315	381.884314
10.640000	6.767312	14.983706	387.550156	387.898738
10.645000	10.316326	13.862276	393.278244	393.657677
10.650000	12.385611	11.965628	397.294579	397.667652
10.655000	14.338296	10.957676	405.760330	406.161425
10.660000	15.825469	11.031814	421.756172	422.197128
10.665000	14.819589	10.717105	433.477020	433.862655
10.670000	11.166182	10.403220	440.066589	440.331141
10.675000	8.369240	11.363580	455.386406	455.605042
10.680000	4.989887	12.050633	467.962349	468.144077
10.685000	3.012727	13.471090	484.731163	484.927672
10.690000	1.306942	15.238169	501.240723	501.473999
10.695000	-0.512764	16.615987	522.795113	523.059350
10.700000	-1.087433	18.223235	548.112846	548.416777
10.705000	-2.672746	18.784019	569.747467	570.063294
10.710000	-3.558451	18.997768	591.126091	591.441995
10.715000	-3.938090	18.441249	608.229843	608.522087
10.720000	-3.696550	17.539347	622.425346	622.683391
10.725000	-1.509174	16.409253	636.278114	636.491461
10.730000	1.379000	14.544515	647.560646	647.725432
10.735000	5.785671	12.718291	659.527100	659.675090
10.740000	10.465204	10.700737	669.783180	669.950397
10.745000	15.377943	9.341626	680.213196	680.451129
10.750000	19.277654	7.790359	688.080597	688.394673
10.755000	22.283024	5.697017	696.970245	697.349634
10.760000	25.951915	4.336667	709.622742	710.110375
10.765000	28.762555	2.935328	717.569778	718.151995
10.770000	32.272799	3.429814	731.937607	732.656780
10.775000	34.964158	5.664418	747.933105	748.771332
10.780000	36.058589	7.977700	758.627518	759.525889
10.785000	38.124599	10.522063	773.260178	774.270948
10.790000	41.087631	12.599313	793.196106	794.359490
10.795000	42.300451	12.933555	808.259949	809.469425
10.800000	42.734340	13.076467	826.581161	827.788400
10.805000	41.921704	12.835069	842.003784	843.144437
10.810000	40.172388	11.358354	853.408676	854.429167
10.815000	38.930925	9.609569	867.295288	868.221790
10.820000	38.894537	6.584890	879.813675	880.697592
10.825000	40.765817	3.830629	892.755112	893.693580
10.830000	43.453897	0.689583	904.242661	905.286422
10.835000	46.607493	-2.294519	912.906433	914.098287
10.840000	50.732665	-4.929525	924.051743	925.456496
10.845000	54.195209	-7.834539	932.623978	934.230156
10.850000	57.891256	-9.579199	942.050323	943.876036
10.855000	62.677269	-10.006559	954.475235	956.583266
10.860000	64.775496	-11.710642	955.517059	957.781736
10.865000	68.430392	-12.136352	965.719193	968.216695
10.870000	70.762714	-13.954324	969.930176	972.608159
10.875000	73.211341	-15.194593	976.532440	979.390822
10.880000	75.893471	-15.621543	980.736572	983.792700
10.885000	77.601933	-15.506002	982.373383	985.555660
10.890000	80.477902	-14.693093	986.835144	990.220269
10.895000	80.629997	-15.309722	982.738937	986.159928
10.900000	80.938053	-15.542040	980.695618	984.152640
10.905000	80.972948	-14.494750	982.416351	985.854251
10.910000	79.608334	-13.719118	978.236252	981.566027
10.915000	77.853655	-12.130988	973.634872	976.817904
10.920000	75.827009	-11.352468	969.808334	972.834425
10.925000	72.633455	-12.006371	964.104614	966.911309
10.930000	65.895654	-14.517995	952.671936	955.058546
10.935000	58.770469	-16.795651	947.573517	949.542854
10.940000	49.969634	-20.545898	935.630493	937.189158
10.945000	40.855977	-24.294905	924.200500	925.422076
10.950000	31.314084	-27.039675	914.654129	915.589368
10.955000	22.470611	-28.893684	906.131470	906.870450
10.960000	15.068395	-30.594467	897.006851	897.654928
10.965000	11.169278	-30.244131	892.751907	893.333884
10.970000	10.425247	-29.933961	890.372086	890.936125
10.975000	11.085490	-29.702466	886.960739	887.527170
10.980000	8.358937	-30.050326	887.828369	888.376107
10.985000	4.309515	-31.095965	892.291611	892.843687
10.990000	-0.129670	-33.030714	894.526123	895.135760
10.995000	-4.606434	-35.661594	893.165237	893.888757
11.000000	-7.178211	-36.780962	898.480927	899.262109
11.005000	-11.501391	-37.862224	899.600433	900.470305
11.010000	-16.564137	-39.213908	896.957428	897.966998
11.015000	-20.732247	-38.940188	898.677673	899.759815
11.020000	-23.537526	-37.468840	900.055069	901.142084
11.025000	-25.020529	-34.061499	902.457794	903.446890
11.030000	-25.293393	-31.505997	901.949127	902.853594
11.035000	-25.528382	-29.221737	904.092270	904.924550
11.040000	-27.163181	-26.819875	902.729004	903.535721
11.045000	-29.500269	-24.495039	898.197159	899.015244
11.050000	-32.032388	-21.705152	893.838142	894.675255
11.055000	-34.135975	-18.022444	894.270432	895.103166
11.060000	-38.030327	-15.232971	891.023262	891.964575
11.065000	-42.313249	-12.792593	889.317299	890.415251
11.070000	-45.662767	-10.392795	890.863937	892.093971
11.075000	-48.853045	-9.076735	891.039207	892.423597
11.080000	-50.293411	-7.376367	896.433556	897.873576
11.085000	-52.316484	-7.341155	897.722191	899.275285
11.090000	-53.443134	-6.958496	904.571144	906.175228
11.095000	-54.842646	-6.305833	912.707413	914.375361
11.100000	-56.280333	-5.962099	922.299797	924.034598
11.105000	-58.108374	-5.888786	927.526291	929.363374
11.110000	-59.663258	-5.465963	935.320580	937.237519
11.115000	-61.142092	-3.763946	942.602638	944.591052
11.120000	-64.526806	-2.914586	944.749863	946.955388
11.125000	-67.524137	-0.825783	950.493156	952.888992
11.130000	-70.561131	1.340048	955.037918	957.641944
11.135000	-72.819191	4.474491	963.090202	965.849571
11.140000	-76.089684	6.757924	964.380470	967.401158
11.145000	-78.815641	8.885242	965.843422	969.094613
11.150000	-81.503426	11.091650	968.844719	972.330151
11.155000	-83.606716	13.491035	972.104721	975.786698
11.160000	-86.606728	14.846020	969.799736	973.772385
11.165000	-88.905048	16.744733	968.949158	973.163380
11.170000	-90.075527	19.262548	971.607269	975.963797
11.175000	-91.829308	21.047371	966.902374	971.481248
11.180000	-93.779015	22.524500	958.689674	963.528800
11.185000	-94.599392	24.777259	951.586166	956.597716
11.190000	-93.824932	27.303740	944.912384	949.951591
11.195000	-93.438744	28.981275	928.905586	934.042987
11.200000	-91.727894	30.773526	917.345062	922.433184
11.205000	-88.463058	33.424625	895.859169	900.836594
11.210000	-84.964722	35.846708	872.230659	877.091964
11.215000	-80.727711	36.644623	841.668434	846.324728
11.220000	-73.533329	37.136907	805.451546	809.653316
11.225000	-64.782578	36.042301	764.097130	767.684996
11.230000	-55.682915	33.478817	717.090744	720.028161
11.235000	-45.145565	30.146719	662.720665	664.940318
11.240000	-32.164353	25.972687	599.274929	600.699231
11.245000	-16.613448	23.308521	528.122620	528.897717
11.250000	0.112106	21.673900	439.848183	440.381873
11.255000	16.260907	23.002752	334.370115	335.554642
11.260000	24.822286	22.656131	206.217430	208.937968
11.265000	23.297835	18.437534	104.872514	108.999890
11.270000	15.080602	10.497715	44.460116	48.107468
11.275000	11.929092	5.601283	11.083060	17.219519
11.280000	3.421368	0.435393	-1.056751	3.607221
11.285000	2.419061	-0.087564	3.735832	4.451512
11.290000	0.437733	0.447497	2.280539	2.364894
11.295000	0.282661	0.293444	1.255954	1.320389
11.300000	0.517353	0.250804	2.280911	2.352257
11.305000	-0.493886	0.521636	0.570876	0.917566
11.310000	0.401645	0.481060	2.796271	2.865636
11.315000	0.090906	0.402382	0.914490	1.003229
11.320000	0.286532	0.401144	1.597133	1.671482
11.325000	0.948265	0.903057	4.508806	4.695109
11.330000	-0.140212	0.165524	-0.197871	0.293616
11.335000	0.560289	0.629336	3.651746	3.747697
11.340000	-0.022420	0.473632	1.257297	1.343735
11.345000	0.560289	0.666612	3.565828	3.670617
11.350000	0.638420	0.782977	3.481734	3.625342
11.355000	0.016348	0.240076	0.914972	0.946085
11.360000	0.717147	0.897279	3.910458	4.075671
11.365000	0.600843	0.896455	3.995368	4.138551
11.370000	0.172908	0.238012	1.170664	1.207063
11.375000	-0.098169	0.159335	1.085028	1.101050
11.380000	0.757404	0.778438	4.422220	4.553642
11.385000	0.484838	0.583808	3.227003	3.315033
11.390000	0.407302	0.505956	2.712557	2.789238
11.395000	-0.098467	0.158509	-0.197442	0.271669
11.400000	0.057498	0.157684	0.145316	0.222007
11.405000	0.135629	0.312563	0.572217	0.665976
11.410000	0.019326	0.310913	1.342396	1.378067
11.415000	1.030863	1.007456	6.049556	6.218904
11.420000	0.136523	0.349839	1.000459	1.068618
11.425000	-0.096680	0.077769	-0.282207	0.308279
11.430000	0.564458	0.657947	3.568465	3.672254
11.435000	-0.408312	-0.154550	-1.137828	1.218711
11.440000	0.019326	0.076943	0.488788	0.495185
11.445000	0.292785	0.502655	2.799239	2.859043
11.450000	0.098350	-0.040660	0.830059	0.836854
11.455000	-0.017953	0.114219	0.144404	0.184989
11.460000	0.566244	0.733323	3.483507	3.604610
11.465000	-0.368353	-0.117687	-1.052441	1.121234
11.470000	0.177077	0.307611	1.942423	1.974585
11.475000	0.098648	0.113394	0.830059	0.843557
11.480000	-0.251156	-0.273804	-0.794977	0.877517
11.485000	0.566840	0.577618	3.910841	3.993698
11.490000	0.099244	0.306787	1.087186	1.133994
11.495000	0.761274	0.769773	3.909977	4.057093
11.500000	-0.055828	0.190421	1.087858	1.105808
11.505000	-0.016762	0.151082	1.429509	1.437568
11.510000	0.722507	0.614894	3.398309	3.528259
11.515000	-0.367757	-0.236528	-0.710257	0.834060
11.520000	-0.016762	-0.120575	-0.025270	0.124330
11.525000	-0.289328	-0.275454	-0.625059	0.741811
11.530000	-0.171834	-0.005447	0.232001	0.288758
11.535000	-0.055232	0.033066	0.145889	0.159460
11.540000	0.140096	0.380925	1.773847	1.819687
11.545000	0.801233	0.962340	4.596304	4.763830
11.550000	0.645566	0.807874	3.998194	4.129767
11.555000	0.800638	0.883663	4.511391	4.666319
11.560000	0.567733	0.728784	3.312295	3.438713
11.565000	0.022899	0.031828	-0.024554	0.046263
11.570000	0.333935	0.341586	2.541731	2.586231
11.575000	0.607394	0.845149	4.083392	4.213941
11.580000	0.100435	0.108855	0.660527	0.676929
11.585000	-0.054637	0.109680	0.231761	0.262160
11.590000	0.645566	0.533741	3.141757	3.251503
11.595000	0.490197	0.612005	3.484561	3.571695
11.600000	0.334828	0.224808	2.285131	2.320446
11.605000	0.062262	0.302248	1.087042	1.129996
11.610000	0.569520	0.649693	3.483796	3.589330
11.615000	0.802127	0.882424	3.997186	4.171280
11.620000	0.140096	0.224395	0.831017	0.872106
11.625000	0.646460	0.727545	3.227627	3.371173
11.630000	0.412959	0.572254	2.456725	2.556072
11.635000	0.218525	0.223570	2.285371	2.306655
11.640000	-0.364779	-0.164453	-0.793969	0.889098
11.645000	2.208190	1.378560	4.263555	4.995441
11.650000	-43.859140	1.056561	94.083095	103.809292
11.655000	-62.418095	1.466729	162.165170	173.769135
11.660000	-36.669581	15.573236	201.105535	205.013707
11.665000	-151.497246	2.656521	896.693016	909.404661
11.670000	-102.561390	27.824772	477.202648	488.892037
11.675000	76.197418	57.891796	559.892761	568.011805
11.680000	173.600159	72.937344	578.140610	608.032430
11.685000	122.450188	54.528748	680.306480	693.386141
11.690000	74.209242	41.864981	778.771248	783.418371
11.695000	42.109352	36.020706	816.367355	818.245897
11.700000	10.848358	25.358538	831.457382	831.914732
11.705000	-19.754774	13.500390	856.474022	856.808183
11.710000	-52.610608	5.658779	908.887909	910.426894
11.715000	-87.152216	-2.082697	967.981972	971.899657
11.720000	-103.013504	-14.191869	1028.087677	1033.333181
11.725000	-84.878910	-18.996008	1073.186890	1076.705799
11.730000	-64.946999	-14.786077	1112.381882	1114.374350
11.735000	-67.593929	-10.776552	1153.987900	1156.016067
11.740000	-80.023403	-17.174185	1193.465012	1196.268127
11.745000	-91.526611	-23.910185	1225.491074	1229.136766
11.750000	-97.767876	-23.292319	1248.441742	1252.480688
11.755000	-98.829197	-19.816205	1272.324127	1276.310533
11.760000	-94.631252	-17.849133	1277.710815	1281.334692
11.765000	-88.562927	-17.932762	1282.920059	1286.098307
11.770000	-83.117264	-22.740612	1290.179977	1293.054519
11.775000	-74.860966	-24.184179	1311.378326	1313.735953
11.780000	-58.890522	-22.878848	1336.582870	1338.075224
11.785000	-32.013570	-19.017604	1353.732086	1354.244106
11.790000	-10.086336	-13.365345	1345.043350	1345.147568
11.795000	-0.935101	-7.354496	1321.662033	1321.682826
11.800000	-5.068015	-3.931067	1275.206360	1275.222490
11.805000	-17.148276	-2.479246	1219.437424	1219.560511
11.810000	-27.321767	-1.298262	1173.677841	1173.996524
11.815000	-33.484009	-2.091774	1134.668823	1135.164699
11.820000	-34.233698	-2.847188	1103.008438	1103.543233
11.825000	-30.037840	-3.602602	1077.334915	1077.759607
11.830000	-26.658189	-6.368967	1047.638138	1047.996608
11.835000	-25.113430	-9.482777	1020.769051	1021.121962
11.840000	-26.876741	-13.797107	991.933960	992.393924
11.845000	-28.211226	-16.179576	972.001984	972.545890
11.850000	-29.972155	-18.913617	949.418655	950.079911
11.855000	-30.641331	-21.108470	925.631630	926.379173
11.860000	-30.180286	-23.226708	898.504524	899.311242
11.865000	-28.978780	-23.293420	874.372505	875.162631
11.870000	-27.697656	-22.390279	845.871643	846.621120
11.875000	-25.910167	-20.401749	821.224487	821.886383
11.880000	-24.084802	-17.677749	796.231865	796.792171
11.885000	-22.840361	-16.309146	769.696045	770.207551
11.890000	-21.284883	-14.786490	746.500473	746.950228
11.895000	-20.039250	-13.267961	727.582054	727.978884
11.900000	-18.637653	-12.484487	711.403542	711.757138
11.905000	-16.768162	-12.246805	695.652657	695.962480
11.910000	-12.952536	-11.274891	691.283394	691.496654
11.915000	-9.798049	-11.350267	686.229870	686.393666
11.920000	-7.188694	-11.580935	681.776001	681.912246
11.925000	-4.112636	-10.922081	682.370861	682.470657
11.930000	-1.890363	-10.342315	680.827389	680.908562
11.935000	1.536095	-8.910304	683.216858	683.276685
11.940000	4.067319	-7.014479	682.783226	682.831370
11.945000	7.378367	-4.383187	685.687256	685.740961
11.950000	9.403823	-2.602079	681.145592	681.215472
11.955000	12.558012	0.223433	681.735184	681.850874
11.960000	14.622534	2.313061	679.076233	679.237586
11.965000	15.052255	4.248223	675.476250	675.657296
11.970000	14.740028	6.299338	671.708900	671.900139
11.975000	12.908709	8.312766	668.110947	668.287344
11.980000	10.804527	10.211478	663.147964	663.314582
11.985000	7.104014	10.832232	653.821636	653.949949
11.990000	4.299033	12.345397	651.772953	651.904037
11.995000	-0.608940	11.264958	640.053631	640.153045
12.000000	-3.958159	10.534441	632.869980	632.970025
12.005000	-5.711943	9.919876	627.738300	627.842659
12.010000	-8.244060	8.143307	618.070602	618.179220
12.015000	-9.763748	6.599881	609.257965	609.371937
12.020000	-10.193469	5.870189	602.497086	602.611902
12.025000	-10.622893	4.905290	595.991234	596.106080
12.030000	-11.246751	3.320462	586.834660	586.951815
12.035000	-10.429054	2.663671	584.008545	584.107731
12.040000	-9.067416	1.966715	580.326153	580.400318
12.045000	-8.014729	1.385712	578.097485	578.154701
12.050000	-5.640065	1.888863	579.548679	579.579201
12.055000	-4.432604	1.693407	576.805252	576.824769
12.060000	-3.108542	1.653243	574.576149	574.586936
12.065000	-0.928908	1.961762	574.740662	574.744760
12.070000	0.980541	2.734508	576.616489	576.623807
12.075000	2.771306	3.506427	576.609325	576.626646
12.080000	5.887919	4.858110	583.103146	583.153108
12.085000	8.343096	5.744332	584.032993	584.120828
12.090000	12.394008	7.520490	592.320297	592.497682
12.095000	15.822848	8.754570	596.413872	596.687951
12.100000	19.367097	10.259895	601.875648	602.274560
12.105000	21.199310	11.340334	603.061630	603.540673
12.110000	22.017305	11.996301	602.968132	603.489222
12.115000	20.576940	12.381848	599.110371	599.591492
12.120000	18.590550	13.039052	597.738247	598.169405
12.125000	16.643821	13.619229	595.596031	595.984171
12.130000	14.813693	14.121554	592.339397	592.692859
12.135000	13.762793	14.508752	589.085056	589.424399
12.140000	13.101358	14.778346	586.082996	586.415658
12.145000	12.674315	14.739008	583.681263	584.004874
12.150000	12.753042	14.583716	581.019966	581.342864
12.155000	12.559203	13.809320	576.647259	576.949298
12.160000	13.883563	14.118253	577.493137	577.832503
12.165000	14.001951	13.768332	575.169224	575.504351
12.170000	14.975315	14.385372	575.841755	576.216041
12.175000	15.249370	14.190329	573.945213	574.323094
12.180000	16.417467	15.037624	576.325413	576.755273
12.185000	17.197588	15.615326	577.419086	577.886145
12.190000	18.678507	16.540473	580.055420	580.591736
12.195000	20.508636	17.311980	582.176460	582.794766
12.200000	21.210031	17.078423	580.879036	581.516975
12.205000	21.834186	16.651887	579.409981	580.060292
12.210000	22.535283	16.457257	580.509308	581.179608
12.215000	22.769378	15.721788	580.414513	581.073683
12.220000	23.548307	14.909704	580.318810	580.987730
12.225000	22.809634	13.826789	579.632652	580.246044
12.230000	21.680009	12.938091	581.263947	581.811991
12.235000	17.903449	10.734160	572.970001	573.350136
12.240000	15.294688	10.079844	571.695908	571.989284
12.245000	14.007906	9.889341	570.760941	571.018451
12.250000	12.607202	9.388666	568.112782	568.330204
12.255000	11.438807	8.502445	565.292934	565.472581
12.260000	10.076573	7.073321	558.790943	558.926549
12.265000	10.154109	6.379254	559.991772	560.120152
12.270000	8.401814	4.949305	556.227802	556.313270
12.275000	7.429343	4.525245	556.397297	556.465295
12.280000	7.272485	4.990294	560.333481	560.402892
12.285000	5.715816	4.757976	558.447598	558.497116
12.290000	4.898118	4.950543	559.725784	559.769107
12.295000	4.781815	5.608160	562.973129	563.021369
12.300000	4.743345	5.452456	562.796268	562.842668
12.305000	4.743345	5.335677	563.133892	563.179145
12.310000	4.860839	5.529895	565.268631	565.316577
12.315000	4.782113	5.492620	563.125397	563.172487
12.320000	4.043439	4.951368	559.184689	559.221228
12.325000	5.094042	5.842954	561.493027	561.546533
12.330000	4.899607	5.612286	558.153839	558.203558
12.335000	5.055274	5.420132	556.010906	556.060304
12.340000	4.705768	4.918632	553.443935	553.485796
12.345000	3.654570	4.417133	549.334473	549.364387
12.350000	3.381111	4.341755	548.732189	548.759782
12.355000	2.330508	4.072162	545.993042	546.013201
12.360000	2.447407	4.615477	547.530346	547.555269
12.365000	2.291443	4.887959	545.900612	545.927304
12.370000	2.993134	5.624666	550.090729	550.127627
12.375000	1.746906	4.656466	545.295361	545.318040
12.380000	1.903764	5.392347	549.056763	549.086542
12.385000	1.124239	5.352183	549.226212	549.253440
12.390000	0.579702	5.468136	551.873367	551.900761
12.395000	-0.081733	5.468136	551.358681	551.385801
12.400000	-0.626567	5.196066	550.327881	550.352767
12.405000	0.073934	5.738143	554.089432	554.119148
12.410000	-0.120799	5.428385	553.915260	553.941872
12.415000	-1.364645	4.074225	550.062454	550.079235
12.420000	-1.054204	3.920171	552.031403	552.046328
12.425000	-1.831347	3.031473	549.290359	549.301777
12.430000	-1.247150	2.915934	551.685524	551.694640
12.435000	-2.025187	1.755166	546.292374	546.298947
12.440000	-0.817726	2.298481	551.595161	551.600556
12.445000	-1.752323	1.331105	549.368462	549.372869
12.450000	-1.789602	1.174989	551.931641	551.935793
12.455000	-2.411972	0.903745	552.355232	552.361238
12.460000	-2.994978	0.902507	556.204224	556.213019
12.465000	-3.734247	0.746389	557.998726	558.011720
12.470000	-3.889318	1.442107	563.387886	563.403156
12.475000	-5.095587	0.822591	561.418190	561.441917
12.480000	-4.939028	1.402768	564.413956	564.437308
12.485000	-5.132569	1.674013	564.755455	564.781258
12.490000	-5.249468	1.944432	565.525589	565.553295
12.495000	-5.910010	2.062036	564.328094	564.362807
12.500000	-6.065974	2.023522	563.388664	563.424953
12.505000	-6.026612	2.024347	563.477188	563.513052
12.510000	-5.949076	2.219391	563.652328	563.688092
12.515000	-6.298879	1.910871	560.574348	560.612993
12.520000	-6.104147	2.183353	562.461990	562.499350
12.525000	-7.467274	1.410196	557.930092	557.981842
12.530000	-8.284376	1.681440	560.330330	560.394091
12.535000	-9.374640	1.333582	560.933800	561.013716
12.540000	-11.009143	0.714066	558.967026	559.075887
12.545000	-11.203874	1.023411	561.964485	562.077091
12.550000	-11.942845	1.061099	562.818466	562.946164
12.555000	-11.786583	1.795743	566.241821	566.367326
12.560000	-12.682710	2.065337	566.070366	566.216192
12.565000	-12.835994	2.529562	568.208267	568.358862
12.570000	-12.719691	2.800393	570.604408	570.753032
12.575000	-11.823565	4.115627	576.336952	576.472911
12.580000	-11.315414	5.237468	581.900558	582.034131
12.585000	-12.093749	5.160028	579.588371	579.737496
12.590000	-11.819992	5.391934	582.584763	582.729603
12.595000	-11.468103	5.972938	585.066872	585.209738
12.600000	-10.883311	6.552289	589.003639	589.140616
12.605000	-10.843352	6.359722	586.864029	586.998648
12.610000	-9.673171	7.249658	591.485352	591.608865
12.615000	-9.283705	7.133292	592.170082	592.285807
12.620000	-10.060550	6.126991	589.090744	589.208502
12.625000	-9.202596	6.010213	593.369354	593.471146
12.630000	-9.124465	5.080525	593.026741	593.118692
12.635000	-8.344642	4.266379	596.621719	596.695325
12.640000	-9.005780	2.524197	593.027771	593.101520
12.645000	-8.461243	1.517484	594.312546	594.374711
12.650000	-9.123870	-0.534457	590.034805	590.105586
12.655000	-9.162935	-1.619436	592.091179	592.164290
12.660000	-9.202001	-2.783092	593.806625	593.884442
12.665000	-9.942461	-4.448247	590.813637	590.914032
12.670000	-9.827348	-5.223880	592.446213	592.550741
12.675000	-9.944843	-5.920836	593.475288	593.588135
12.680000	-10.140171	-6.735395	594.591202	594.715803
12.685000	-11.308268	-8.362862	591.515785	591.682971
12.690000	-11.036000	-8.982378	592.288033	592.458935
12.695000	-11.737989	-10.144797	590.150879	590.354772
12.700000	-11.659859	-10.223886	593.405441	593.608034
12.705000	-10.725857	-10.225124	596.230003	596.414130
12.710000	-11.270691	-10.961007	594.261826	594.469755
12.715000	-10.103190	-10.613147	597.258698	597.438419
12.720000	-9.869987	-10.806953	597.263245	597.442541
12.725000	-9.791856	-10.963482	598.208900	598.389478
12.730000	-9.715512	-10.731576	600.094749	600.269328
12.735000	-10.494143	-11.390018	596.590187	596.791179
12.740000	-10.339072	-11.119186	597.448868	597.641768
12.745000	-9.988970	-10.577110	600.105484	600.281806
12.750000	-10.339370	-10.732814	597.882996	598.068702
12.755000	-10.378733	-10.539421	597.286331	597.469463
12.760000	-9.912625	-9.805604	601.138550	601.300230
12.765000	-10.612829	-9.998170	600.454956	600.631959
12.770000	-10.768793	-9.497496	604.305214	604.475774
12.775000	-10.963824	-9.383606	607.554031	607.725397
12.780000	-10.729728	-8.921032	611.657539	611.816686
12.785000	-9.951989	-8.303580	615.846970	615.983345
12.790000	-9.405666	-7.570586	617.810547	617.928517
12.795000	-8.588862	-6.915445	623.625214	623.722694
12.800000	-8.471368	-6.723703	624.732292	624.825903
12.805000	-7.186371	-6.030462	630.631447	630.701223
12.810000	-6.602173	-6.071038	632.764229	632.827793
12.815000	-5.549785	-5.687142	636.267700	636.317319
12.820000	-5.276921	-6.113678	636.860962	636.912166
12.825000	-4.691235	-5.728956	641.220779	641.263531
12.830000	-4.730300	-6.156731	641.129929	641.176938
12.835000	-3.717870	-5.617130	646.345551	646.380651
12.840000	-3.483774	-5.851099	645.487526	645.523445
12.845000	-2.782975	-5.078355	647.537788	647.563682
12.850000	-2.626713	-5.350424	646.595436	646.622908
12.855000	-2.354445	-5.350837	646.078972	646.105419
12.860000	-2.471046	-5.467202	646.932838	646.960659
12.865000	-2.627904	-6.087131	646.246208	646.280218
12.870000	-3.054946	-6.473916	644.873611	644.913342
12.875000	-2.432576	-6.319450	647.782120	647.817511
12.880000	-1.809611	-6.049031	648.892807	648.923524
12.885000	-2.705440	-6.861113	642.729965	642.772279
12.890000	-3.172739	-7.285999	639.047569	639.096978
12.895000	-3.056137	-6.820537	639.647652	639.691315
12.900000	-3.329597	-6.782024	638.532974	638.577670
12.905000	-4.380497	-7.206084	633.652443	633.708557
12.910000	-3.718168	-6.586155	634.250427	634.295520
12.915000	-3.523733	-6.429625	631.166199	631.208783
12.920000	-3.445900	-6.311197	627.911705	627.952876
12.925000	-4.302961	-6.891374	622.858910	622.911894
12.930000	-4.847497	-6.735257	621.146767	621.202195
12.935000	-4.886563	-6.618066	620.714989	620.769502
12.940000	-5.664600	-6.268144	617.885590	617.943346
12.945000	-5.120063	-5.338045	619.422943	619.467103
12.950000	-5.859927	-4.950022	614.796577	614.844430
12.955000	-5.470462	-3.710577	614.534081	614.569630
12.960000	-5.743326	-3.554873	608.793343	608.830811
12.965000	-5.352670	-2.547747	609.729858	609.758675
12.970000	-5.041932	-1.926993	607.754311	607.778279
12.975000	-5.002569	-1.577071	604.667191	604.689941
12.980000	-5.118872	-1.032931	602.008247	602.030896
12.985000	-4.690937	-0.064318	599.606468	599.624821
12.990000	-4.146103	0.711315	596.690857	596.705685
12.995000	-4.263002	1.099751	591.890938	591.907311
13.000000	-3.250274	2.765319	593.935799	593.951129
13.005000	-2.900172	3.308220	588.023781	588.040239
13.010000	-2.160606	4.353860	585.875641	585.895802
13.015000	-1.381974	4.897587	580.990135	581.012421
13.020000	-0.487931	5.982978	579.529778	579.560866
13.025000	0.212569	6.294800	576.957466	576.991843
13.030000	-0.722920	6.180911	570.019547	570.053515
13.035000	-0.917058	6.879929	567.533287	567.575727
13.040000	-0.919142	7.307290	563.934982	563.983072
13.045000	-0.336433	8.472184	563.247009	563.310824
13.050000	-0.610785	8.513999	558.623192	558.688403
13.055000	-0.611084	8.633253	554.255096	554.322666
13.060000	-0.106506	8.674654	552.882828	552.950886
13.065000	-0.847859	7.633966	545.776131	545.830176
13.070000	-0.731555	7.714708	542.606117	542.661451
13.075000	-0.577675	7.331223	537.640404	537.690696
13.080000	-0.190294	7.295599	533.358810	533.408739
13.085000	0.625617	7.299313	531.817329	531.867787
13.090000	-0.192379	6.450366	525.055450	525.095106
13.095000	0.817967	7.187899	526.505875	526.555573
13.100000	0.467568	6.879378	521.111946	521.157562
13.105000	0.272835	6.532758	514.522530	514.564073
13.110000	0.660513	6.380355	510.757324	510.797601
13.115000	0.309519	5.569921	505.368538	505.399326
13.120000	0.463399	5.494545	504.087357	504.117514
13.125000	-1.016032	5.223713	500.234909	500.263214
13.130000	-2.340689	5.031559	497.240334	497.271299
13.135000	-3.158684	5.688351	493.815056	493.857919
13.140000	-3.665048	6.268940	492.530518	492.584047
13.145000	-3.588406	6.733165	491.331100	491.390336
13.150000	-3.782245	7.350205	490.556503	490.626145
13.155000	-4.016341	7.928732	491.066208	491.146634
13.160000	-4.872806	8.236427	489.861832	489.955301
13.165000	-4.289800	9.628274	493.195145	493.307771
13.170000	-4.212265	9.665962	491.308334	491.421462
13.175000	-4.055407	9.394306	488.224632	488.331845
13.180000	-3.432739	9.315628	487.279968	487.381095
13.185000	-2.965738	9.624561	488.473602	488.577412
13.190000	-2.771006	9.507783	487.099800	487.200464
13.195000	-2.615637	9.507783	486.069038	486.169055
13.200000	-2.576869	8.887854	482.641663	482.730368
13.205000	-2.459672	8.114285	479.386650	479.461627
13.210000	-0.746741	8.269989	481.349701	481.421317
13.215000	-0.280038	7.534932	479.377258	479.436554
13.220000	-0.552307	6.839214	475.607262	475.656754
13.225000	0.653069	7.459556	479.111778	479.170291
13.230000	0.225134	6.648710	475.169395	475.215962
13.235000	0.535575	6.609784	476.877747	476.923853
13.240000	0.028615	6.415154	475.758057	475.801307
13.245000	-1.101309	6.143497	474.383438	474.424495
13.250000	-2.075865	6.104983	472.666969	472.710952
13.255000	-2.581633	6.027131	474.459717	474.505020
13.260000	-3.243664	5.911592	474.285576	474.333507
13.265000	-3.594658	6.220524	475.909698	475.963925
13.270000	-4.374185	6.105396	472.482094	472.541785
13.275000	-4.375078	6.958055	472.993469	473.064877
13.280000	-5.270906	7.035908	468.711815	468.794253
13.285000	-5.116431	7.848403	468.963150	469.056725
13.290000	-5.933533	8.004521	465.793137	465.899694
13.295000	-5.974087	8.467920	463.734581	463.850361
13.300000	-5.118217	9.165288	465.184853	465.303284
13.305000	-5.119111	9.009997	463.298134	463.414012
13.310000	-6.170607	7.811541	456.191383	456.299983
13.315000	-5.509766	7.154749	455.332787	455.422325
13.320000	-5.081831	6.071009	452.504677	452.573933
13.325000	-4.304092	5.492895	452.415588	452.469404
13.330000	-2.708953	4.449319	450.442574	450.472693
13.335000	-0.450593	4.102285	451.890793	451.909637
13.340000	1.885899	3.019782	451.881729	451.895754
13.345000	5.119410	2.553907	456.919518	456.955333
13.350000	9.755414	2.047455	466.399567	466.506073
13.355000	13.342897	0.456851	470.998489	471.187668
13.360000	19.110909	0.217518	486.120399	486.495958
13.365000	23.944026	-0.254960	500.809036	501.381165
13.370000	27.960933	-0.573383	517.039726	517.795540
13.375000	30.225547	-0.351381	532.071739	532.929679
13.380000	30.542540	-0.517814	542.912987	543.771667
13.385000	30.040642	-0.256473	556.584183	557.394347
13.390000	28.408818	0.277351	566.666634	567.378367
13.395000	25.801547	0.813651	574.528755	575.108401
13.400000	22.803323	1.352839	579.058670	579.509072
13.405000	18.676066	1.156145	578.457024	578.759588
13.410000	15.366507	1.696158	583.244728	583.449586
13.415000	11.433984	1.229045	584.266655	584.379817
13.420000	9.331587	2.270972	592.821159	592.898948
13.425000	6.489625	1.920224	595.983200	596.021625
13.430000	3.921419	1.763282	599.999626	600.015032
13.435000	1.741487	1.179391	604.701599	604.705257
13.440000	0.341081	0.750791	609.487747	609.488305
13.445000	-0.281289	0.399219	615.818321	615.818515
13.450000	-1.993624	-1.227011	614.275215	614.279676
13.455000	-1.992135	-2.002231	617.012413	617.018878
13.460000	-2.342535	-3.240851	616.498558	616.511527
13.465000	-2.575142	-4.129549	615.043854	615.063108
13.470000	-2.146909	-4.864605	614.533630	614.556634
13.475000	-1.679611	-5.597598	614.708801	614.736581
13.480000	-1.134181	-6.331004	614.368500	614.402166
13.485000	-1.640843	-7.413919	608.809448	608.856800
13.490000	-1.407045	-7.798640	606.586967	606.638729
13.495000	-1.057539	-7.914181	604.193939	604.246695
13.500000	-1.211717	-8.107161	601.714394	601.770227
13.505000	-1.097200	-7.873604	598.979385	599.032137
13.510000	-0.357633	-7.097146	599.838943	599.881034
13.515000	-0.747991	-7.406078	594.367477	594.414088
13.520000	-0.826123	-6.902103	592.401642	592.442425
13.525000	-2.190143	-6.668547	587.101395	587.143350
13.530000	-2.658633	-6.164983	582.312538	582.351241
13.535000	-2.113501	-4.576854	583.430344	583.452123
13.540000	-2.115287	-3.840147	579.925476	579.942048
13.545000	-3.128313	-4.032302	574.622887	574.645550
13.550000	-2.777914	-3.295182	572.743752	572.759967
13.555000	-3.245510	-3.254193	567.956116	567.974711
13.560000	-2.546200	-2.245829	569.926651	569.936764
13.565000	-2.896004	-2.283517	565.479393	565.491419
13.570000	-2.662801	-2.011447	564.370529	564.380395
13.575000	-2.702760	-1.893844	563.087631	563.097302
13.580000	-3.285766	-2.357243	557.525482	557.540148
13.585000	-2.624034	-2.202776	559.751099	559.761583
13.590000	-2.078604	-1.930707	560.692032	560.699209
13.595000	-2.039240	-2.317079	558.807457	558.815982
13.600000	-1.182477	-2.123273	561.288452	561.293714
13.605000	-0.870250	-2.124512	560.259468	560.264172
13.610000	-0.948084	-2.511297	558.204002	558.210457
13.615000	-0.129195	-1.775828	561.623848	561.626670
13.620000	0.610372	-1.543509	562.563019	562.565467
13.625000	0.649735	-1.660287	561.618584	561.621414
13.630000	1.545564	-1.273915	564.695892	564.699444
13.635000	1.857195	-0.965395	565.719543	565.723416
13.640000	2.831155	-0.268027	568.711830	568.718940
13.645000	2.791792	-0.501171	568.025742	568.032823
13.650000	3.065251	-0.036946	569.561386	569.569635
13.655000	3.026186	-0.039010	569.474693	569.482735
13.660000	3.493484	0.619433	571.610931	571.621942
13.665000	3.571318	1.353664	572.295197	572.307940
13.670000	2.870519	1.005805	568.870270	568.878401
13.675000	2.559185	1.625321	569.725487	569.733553
13.680000	3.414162	2.243599	572.207123	572.221707
13.685000	2.520120	1.895328	568.954910	568.963648
13.690000	3.141894	2.476743	569.815643	569.829688
13.695000	2.013160	2.168223	566.395508	566.403236
13.700000	2.402029	2.363266	568.884064	568.894043
13.705000	0.417128	1.706061	564.267906	564.270639
13.710000	-0.595302	1.938380	563.502815	563.506464
13.715000	-1.413298	1.978544	561.796082	561.801343
13.720000	-1.996602	2.056396	561.459549	561.466865
13.725000	-1.257929	2.754177	565.827194	565.835295
13.730000	-1.801869	2.290778	563.007042	563.014586
13.735000	-1.957536	2.290366	563.351616	563.359673
13.740000	-2.852472	1.439356	559.674988	559.684108
13.745000	-2.813109	1.594235	560.276550	560.285881
13.750000	-1.918471	2.019946	561.817581	561.824488
13.755000	-2.461816	1.711013	560.449814	560.457832
13.760000	-1.995709	1.711013	561.306831	561.312987
13.765000	-2.227720	1.866718	560.365883	560.373420
13.770000	-1.645011	2.330117	563.018799	563.026024
13.775000	-2.112012	2.058460	561.308861	561.316609
13.780000	-1.644118	2.638637	563.364441	563.373019
13.785000	-1.333380	3.413032	566.360062	566.371915
13.790000	-1.644118	3.644938	565.162231	565.176376
13.795000	-1.216779	4.263628	567.301613	567.318939
13.800000	-1.060516	4.727853	568.756538	568.777177
13.805000	-1.449683	4.765129	567.988121	568.009959
13.810000	-1.098986	5.501011	570.127823	570.155420
13.815000	-0.982683	5.693578	571.412445	571.441655
13.820000	-1.489047	5.306380	570.045158	570.071800
13.825000	-2.110226	4.880256	567.481094	567.506002
13.830000	-1.215885	5.074887	571.508995	571.532820
13.835000	-2.461220	4.030072	567.664696	567.684336
13.840000	-1.956345	4.650001	571.950951	571.973198
13.845000	-3.201680	3.721965	567.933899	567.955119
13.850000	-3.746812	3.335592	567.167709	567.189894
13.855000	-4.292242	3.335592	566.916946	566.943007
13.860000	-4.175045	3.528572	569.488113	569.514348
13.865000	-4.604171	2.794342	567.012207	567.037785
13.870000	-4.993040	2.639875	566.845352	566.873489
13.875000	-5.033297	2.794754	568.647827	568.676970
13.880000	-5.889167	2.409207	566.343170	566.378913
13.885000	-6.240459	2.214989	565.919769	565.958510
13.890000	-7.019092	1.789691	562.500877	562.547516
13.895000	-7.291955	1.828617	562.675919	562.726137
13.900000	-7.137182	1.944983	563.448555	563.497113
13.905000	-6.825253	2.834918	566.103951	566.152191
13.910000	-7.292551	2.060523	563.452576	563.503533
13.915000	-6.553282	2.833680	565.935722	565.980757
13.920000	-6.086579	3.104925	567.221832	567.262985
13.925000	-7.020580	2.214989	562.515022	562.563192
13.930000	-6.669586	2.407556	564.058884	564.103451
13.935000	-5.697710	2.872194	566.797722	566.833636
13.940000	-6.046620	2.329704	564.488327	564.525518
13.945000	-5.423953	2.678801	567.996918	568.029131
13.950000	-5.813418	1.981433	565.430481	565.463837
13.955000	-5.774352	1.555722	566.030907	566.062497
13.960000	-6.085388	1.168112	564.749138	564.783131
13.965000	-5.657453	1.361504	566.803436	566.833305
13.970000	-5.813120	1.360679	567.659248	567.690643
13.975000	-6.397020	1.051333	565.691978	565.729124
13.980000	-5.541447	1.902755	569.801369	569.831491
13.985000	-5.969680	1.787215	568.689041	568.723181
13.990000	-6.475747	1.554071	567.064865	567.103969
13.995000	-6.048109	1.785977	568.691635	568.726600
14.000000	-5.736478	2.288715	570.317734	570.351175
14.005000	-6.165306	2.056396	568.178253	568.215423
14.010000	-6.436979	2.327229	567.750343	567.791602
14.015000	-6.165604	2.829967	569.034309	569.074748
14.020000	-6.282503	2.751701	568.690208	568.731567
14.025000	-5.621365	3.408493	572.113739	572.151508
14.030000	-5.933294	3.022121	569.972870	570.011763
14.035000	-6.088664	2.904930	568.602661	568.642679
14.040000	-5.972062	3.058984	569.541138	569.580662
14.045000	-5.543829	3.213863	571.765816	571.801724
14.050000	-5.778521	2.904104	569.710480	569.747186
14.055000	-5.739753	3.020057	568.340698	568.377704
14.060000	-5.311520	3.444943	570.478271	570.513399
14.065000	-5.078318	3.600235	571.588951	571.622848
14.070000	-5.584384	2.979894	567.820564	567.855843
14.075000	-5.156449	3.521145	569.786613	569.820825
14.080000	-4.572549	4.218100	572.267525	572.301337
14.085000	-4.184275	4.179174	571.667061	571.697649
14.090000	-5.273646	3.444118	566.101501	566.136541
14.095000	-4.105846	4.334466	570.720444	570.751671
14.100000	-4.067078	4.373392	570.034019	570.065304
14.105000	-4.456543	3.675611	566.008827	566.038306
14.110000	-3.600376	4.102560	568.401405	568.427613
14.115000	-3.405048	4.179587	568.400154	568.425719
14.120000	-3.639739	3.483044	565.144897	565.167351
14.125000	-3.133077	3.560071	565.226898	565.246793
14.130000	-2.431981	3.792802	567.793510	567.811386
14.135000	-3.016476	2.941380	562.997849	563.013613
14.140000	-2.471344	3.406017	564.879013	564.894687
14.145000	-2.043112	3.522795	564.190704	564.205402
14.150000	-1.809611	3.600235	565.387733	565.402092
14.155000	-2.355041	2.632447	559.819733	559.830875
14.160000	-2.159415	2.825015	560.843109	560.854381
14.165000	-1.847783	2.670548	560.496620	560.506028
14.170000	-1.418955	2.707824	562.374664	562.382973
14.175000	-0.796288	2.824189	565.108749	565.116367
14.180000	-1.301163	2.049381	563.133041	563.138274
14.185000	-1.105537	1.662184	563.128403	563.131941
14.190000	-0.560107	1.314738	564.750259	564.752068
14.195000	-0.052850	1.275812	567.827774	567.829210
14.200000	0.608883	0.888614	569.192276	569.193295
14.205000	0.688503	0.269511	567.219887	567.220369
14.210000	0.961069	-0.116448	568.669975	568.670799
14.215000	0.689098	-0.892495	567.039902	567.041023
14.220000	1.546457	-0.660176	570.460785	570.463263
14.225000	1.546755	-1.087125	570.795403	570.798533
14.230000	2.287810	-0.739679	576.179398	576.184414
14.235000	3.026781	-0.740916	577.542641	577.551047
14.240000	2.872306	-1.246130	576.165138	576.173645
14.245000	3.534039	-0.782319	577.870705	577.882041
14.250000	4.079170	-0.434873	579.918091	579.932600
14.255000	4.468338	-0.513962	581.109360	581.126766
14.260000	5.518940	-0.011637	585.554932	585.580940
14.265000	5.247863	-0.011637	584.951683	584.975223
14.270000	5.479577	-0.011637	585.463333	585.488975
14.275000	5.129773	-0.321395	583.492050	583.514687
14.280000	5.246076	-0.514788	584.092445	584.116231
14.285000	4.427783	-1.403898	579.728485	579.747094
14.290000	3.922015	-1.983250	577.591240	577.607960
14.295000	4.271223	-1.672666	578.704361	578.722540
14.300000	2.987418	-2.716655	572.973984	572.988212
14.305000	3.141894	-3.024350	571.266029	571.282675
14.310000	3.336626	-2.868646	571.869186	571.886115
14.315000	2.712768	-3.872059	566.226028	566.245766
14.320000	2.946268	-3.638915	567.170006	567.189331
14.325000	3.257006	-3.559825	566.061897	566.082460
14.330000	2.555910	-4.564888	559.731529	559.755979
14.335000	2.634041	-4.331331	559.905693	559.928642
14.340000	2.594380	-4.756217	558.624313	558.650585
14.345000	2.710981	-4.445221	558.539635	558.563902
14.350000	2.710981	-4.947546	555.633522	555.662162
14.355000	2.555314	-4.947133	553.666695	553.694693
14.360000	2.944184	-4.675889	554.523323	554.550852
14.365000	2.671320	-4.984822	552.640762	552.669699
14.370000	2.126486	-5.333919	549.817635	549.847619
14.375000	2.787624	-4.482497	554.011063	554.036209
14.380000	2.164658	-4.792255	551.016296	551.041387
14.385000	2.436926	-4.135463	553.583260	553.604070
14.390000	1.697062	-4.328030	550.843414	550.863031
14.395000	2.319730	-3.361068	554.779572	554.794602
14.400000	2.280366	-3.053373	556.149689	556.162745
14.405000	2.164658	-2.551048	557.858299	557.868332
14.410000	2.006907	-2.165914	558.797150	558.804951
14.415000	1.852134	-2.012272	559.136757	559.143445
14.420000	2.474205	-1.471847	561.617180	561.624559
14.425000	2.552337	-1.046548	563.753914	563.760663
14.430000	1.929074	-1.395645	560.416779	560.421837
14.435000	2.395777	-1.087125	563.067123	563.073270
14.440000	2.747069	-0.662652	566.317665	566.324715
14.445000	2.239812	-1.010923	564.518066	564.523415
14.450000	2.318836	-0.316031	567.766380	567.771203
14.455000	2.708003	0.340348	571.102272	571.108794
14.460000	2.552337	0.610355	571.697014	571.703037
14.465000	2.474205	0.763996	573.662621	573.668465
14.470000	2.941206	1.305660	576.483391	576.492372
14.475000	3.097766	1.499052	576.996315	577.006578
14.480000	2.941206	1.072516	575.967163	575.975671
14.485000	2.669533	1.072516	576.139206	576.146389
14.490000	2.280069	0.493164	573.315178	573.319924
14.495000	2.124104	0.182993	572.458023	572.461993
14.500000	2.591402	0.338697	574.171791	574.177739
14.505000	2.630766	0.222744	573.145630	573.151711
14.510000	1.852134	-0.627439	570.066185	570.069539
14.515000	2.280366	-0.278755	571.435661	571.440279
14.520000	1.463562	-1.167866	567.072807	567.075899
14.525000	1.929669	-0.896621	568.271500	568.275483
14.530000	1.696467	-1.010923	567.418335	567.421772
14.535000	2.202533	-0.933071	568.277267	568.282302
14.540000	1.384835	-1.551349	563.828949	563.832784
14.545000	1.384537	-1.704990	563.063164	563.067447
14.550000	1.112269	-1.704990	561.952057	561.955744
14.555000	1.307300	-1.355894	562.809883	562.813035
14.560000	1.189209	-1.587799	560.160110	560.163623
14.565000	1.111376	-1.432920	559.990341	559.993277
14.570000	0.877876	-1.625488	558.452179	558.455235
14.575000	0.916941	-1.277629	559.307800	559.310011
14.580000	1.227977	-0.852330	561.446999	561.448988
14.585000	1.266745	-0.504059	561.106247	561.107903
14.590000	0.488113	-0.930595	558.283951	558.284940
14.595000	0.487517	-0.389344	559.308914	559.309262
14.600000	-0.095191	-0.582736	558.368767	558.369079
14.605000	0.643780	0.460840	562.220360	562.220917
14.610000	-0.095191	0.151082	560.679939	560.679968
14.615000	0.254910	0.770185	562.306999	562.307584
14.620000	-0.017656	0.460015	562.050148	562.050337
14.625000	0.176481	0.653408	562.649979	562.650386
14.630000	0.253719	0.731259	563.164490	563.165022
14.635000	-0.446186	0.575555	562.224960	562.225432
14.640000	-0.291412	0.729609	564.192802	564.193349
14.645000	-0.640918	0.613243	564.278580	564.279277
14.650000	0.059880	1.425326	569.155357	569.157145
14.655000	-0.445888	1.347062	568.384651	568.386422
14.660000	-0.874121	1.113918	566.759766	566.761534
14.665000	-0.602151	1.229458	567.615440	567.617091
14.670000	-0.445888	1.500703	570.012695	570.014845
14.675000	-0.640918	1.268384	568.216873	568.218650
14.680000	-0.796288	1.035653	567.019081	567.020586
14.685000	-0.096084	1.966990	570.956924	570.960321
14.690000	0.059582	1.811699	570.100876	570.103758
14.695000	0.137416	1.773185	570.787865	570.790635
14.700000	-0.368353	1.501940	568.219955	568.222060
14.705000	-0.679686	1.153256	565.996956	565.998539
14.710000	0.331255	1.812111	569.420929	569.423909
14.715000	-0.485252	1.347474	566.083488	566.085300
14.720000	0.176184	1.928890	569.851082	569.854374
14.725000	-0.407418	1.348712	566.257484	566.259237
14.730000	-0.057912	1.349537	566.687584	566.689194
14.735000	-0.641514	1.039779	562.065163	562.066491
14.740000	-0.680282	1.078293	562.750908	562.752352
14.745000	-0.097275	1.698221	565.403816	565.406375
14.750000	-0.291115	1.543343	564.634315	564.636500
14.755000	-0.835949	1.156145	561.297951	561.299764
14.760000	-0.524615	1.466316	562.666664	562.668819
14.765000	0.137416	2.046493	565.749992	565.753710
14.770000	-0.173918	1.853100	564.379585	564.382654
14.775000	0.176184	2.434103	565.747978	565.753242
14.780000	-0.408312	1.658883	561.383293	561.385893
14.785000	-0.757222	1.465490	561.555069	561.557492
14.790000	0.176481	2.162446	565.578064	565.582225
14.795000	-0.796288	1.349950	561.985420	561.987606
14.800000	-0.407418	1.775248	564.041145	564.044086
14.805000	-1.263884	1.117219	560.018166	560.020706
14.810000	-0.484954	1.852275	563.869789	563.873040
14.815000	-1.108217	1.233997	561.475922	561.478371
14.820000	-1.224223	1.155320	561.562561	561.565084
14.825000	-1.146687	0.884488	562.332489	562.334354
14.830000	-0.951657	1.387226	563.616165	563.618676
14.835000	-1.340824	1.156145	563.020500	563.023284
14.840000	-1.069151	1.426564	563.963249	563.966067
14.845000	-1.263884	1.156145	564.135742	564.138343
14.850000	-1.574622	0.885313	563.195641	563.198538
14.855000	-1.612794	0.846387	562.427437	562.430386
14.860000	-1.147283	0.885313	562.857826	562.859692
14.865000	-1.497086	0.885725	561.575066	561.577760
14.870000	-1.302949	1.195484	563.031624	563.034401
14.875000	-1.731182	1.271685	562.517517	562.521618
14.880000	-1.186348	2.123520	566.454651	566.459873
14.885000	-1.887444	1.967815	564.399643	564.406229
14.890000	-1.342015	3.011805	568.678085	568.687644
14.895000	-2.121243	2.739322	565.512260	565.522873
14.900000	-1.459509	3.822650	570.902336	570.916999
14.905000	-1.186646	4.209847	571.929459	571.946183
14.910000	-1.380485	4.054143	571.673912	571.689954
14.915000	-1.691819	3.783311	569.535721	569.550799
14.920000	-1.420444	4.209023	570.989456	571.006736
14.925000	-1.731182	3.628020	569.108582	569.122779
14.930000	-2.082177	3.280574	567.569511	567.582811
14.935000	-2.002855	3.396939	569.794670	569.808316
14.940000	-1.653051	3.707110	571.336388	571.350806
14.945000	-2.313891	2.817174	568.855339	568.867021
14.950000	-1.380187	3.320325	571.765198	571.776504
14.955000	-1.846890	2.701634	568.857880	568.867293
14.960000	-1.847188	2.624607	569.030617	569.039668
14.965000	-2.274825	1.658470	565.781403	565.788406
14.970000	-2.157331	1.619544	566.038200	566.044628
14.975000	-1.924723	1.465078	565.527351	565.532524
14.980000	-1.690925	1.542517	566.040314	566.044941
14.985000	-0.873526	2.007154	569.294601	569.298810
14.990000	-1.845997	1.156145	565.016151	565.020350
14.995000	-1.845997	1.349537	566.214592	566.219209
15.000000	-2.469260	1.038542	563.819611	563.825974
15.005000	-2.389938	1.735085	568.012131	568.019809
15.010000	-2.662801	1.618306	567.840675	567.849225
15.015000	-2.000771	2.431215	572.462837	572.471496
15.020000	-2.623736	1.966990	570.068611	570.078042
15.025000	-2.039836	2.237410	572.208282	572.216293
15.030000	-1.806038	2.044017	572.896622	572.903115
15.035000	-2.700676	1.309373	569.218262	569.226174
15.040000	-2.583479	1.155320	569.646927	569.653957
15.045000	-2.817575	0.535804	566.995201	567.002455
15.050000	-2.310913	0.807461	569.392525	569.397787
15.055000	-2.271550	0.420263	569.480606	569.485292
15.060000	-2.154948	0.189183	569.482697	569.486805
15.065000	-2.349086	-0.236941	568.800880	568.805780
15.070000	-2.505050	-0.622900	567.518684	567.524555
15.075000	-2.853961	-1.010098	566.751289	566.759375
15.080000	-2.543818	-1.242004	567.780128	567.787185
15.085000	-3.088354	-1.667302	565.558990	565.569880
15.090000	-2.777616	-1.241179	567.531517	567.539671
15.095000	-2.777616	-1.201427	567.533859	567.541928
15.100000	-3.166783	-1.549698	566.593712	566.604681
15.105000	-3.361814	-1.356719	566.766701	566.778295
15.110000	-3.867582	-1.627138	564.885307	564.900891
15.115000	-3.634379	-1.162914	566.770485	566.783330
15.120000	-3.478117	-1.046548	567.970055	567.981668
15.125000	-3.984779	-1.511598	565.406265	565.422327
15.130000	-4.179809	-1.512423	565.234276	565.251753
15.135000	-3.946011	-1.163327	566.434616	566.449555
15.140000	-4.724345	-1.704990	562.671165	562.693582
15.145000	-4.607149	-1.433745	565.068634	565.089234
15.150000	-4.141041	-0.969522	566.953522	566.969474
15.155000	-4.101678	-1.085887	567.043182	567.059057
15.160000	-4.647107	-1.511185	564.561943	564.583091
15.165000	-4.569572	-1.472259	564.393127	564.413546
15.170000	-4.529910	-1.549698	563.880272	563.900596
15.175000	-4.958441	-1.859044	561.740547	561.765507
15.180000	-3.907541	-1.008035	567.046730	567.061089
15.185000	-4.258238	-1.781192	562.597351	562.616285
15.190000	-3.557737	-1.085062	565.850403	565.862628
15.195000	-3.363005	-1.316967	565.850067	565.861593
15.200000	-4.491441	-2.284755	561.143959	561.166585
15.205000	-3.674636	-1.588212	564.653465	564.667656
15.210000	-3.907838	-1.897557	562.428169	562.444946
15.215000	-3.557141	-1.549698	563.538940	563.552298
15.220000	-3.636166	-1.859457	562.169022	562.183856
15.225000	-3.168867	-1.279280	564.821945	564.832283
15.230000	-3.635868	-1.511185	562.681931	562.695707
15.235000	-3.791535	-1.588624	561.654198	561.669242
15.240000	-3.323939	-1.125226	564.135284	564.146199
15.245000	-3.597100	-1.203078	562.936150	562.948928
15.250000	-3.713702	-1.126051	562.593964	562.607348
15.255000	-3.246701	-0.159089	566.015442	566.024776
15.260000	-3.285469	0.227696	567.212677	567.222238
15.265000	-3.285766	0.226871	567.554367	567.563924
15.270000	-3.558332	0.382575	567.725067	567.736347
15.275000	-3.441136	0.421089	567.640579	567.651166
15.280000	-3.907838	0.110506	565.241913	565.255432
15.285000	-3.051373	0.691921	568.237442	568.246056
15.290000	-2.974135	0.537042	567.040024	567.048078
15.295000	-3.284873	0.305136	566.354462	566.364070
15.300000	-2.584372	0.537042	569.437553	569.443671
15.305000	-3.440540	0.073230	564.814247	564.824731
15.310000	-3.090439	-0.042723	566.098831	566.107268
15.315000	-2.778807	0.151495	566.612511	566.619345
15.320000	-3.479010	-0.390169	564.302490	564.313349
15.325000	-2.895110	0.035129	567.039223	567.046614
15.330000	-3.322748	0.035129	565.757263	565.767022
15.335000	-3.517778	0.074055	563.446251	563.457237
15.340000	-3.011414	0.499766	566.527069	566.535293
15.345000	-2.428408	0.963578	568.752907	568.758907
15.350000	-2.817575	0.693984	566.697281	566.704710
15.355000	-2.856343	0.731259	565.671303	565.678987
15.360000	-3.207635	0.653820	563.446587	563.456096
15.365000	-2.428408	1.274574	567.810448	567.817071
15.370000	-2.506837	1.079944	565.672836	565.679422
15.375000	-2.350872	1.428627	566.269043	566.275725
15.380000	-2.896004	0.887376	564.043823	564.051956
15.385000	-2.662503	1.312675	564.215569	564.223378
15.390000	-2.856641	1.390114	564.728874	564.737810
15.395000	-2.933878	1.583919	564.470978	564.480824
15.400000	-2.817575	1.815000	564.641861	564.651808
15.405000	-2.701867	1.892026	565.497078	565.506698
15.410000	-3.012010	1.814587	564.470779	564.481732
15.415000	-2.505943	2.279224	566.952835	566.962955
15.420000	-2.817873	1.930953	565.240242	565.250564
15.425000	-2.856641	1.969879	565.069809	565.080463
15.430000	-3.129207	1.427390	563.270782	563.281283
15.435000	-2.856641	1.814587	564.983498	564.993633
15.440000	-2.429003	2.008805	566.010048	566.018825
15.445000	-2.505943	1.892026	566.438629	566.447332
15.450000	-2.700378	1.622020	565.496315	565.505089
15.455000	-2.233080	1.892026	567.293915	567.301465
15.460000	-2.349979	1.930953	566.267990	566.276158
15.465000	-2.972944	1.311850	562.332352	562.341740
15.470000	-2.467176	1.660946	564.813736	564.821567
15.475000	-2.000473	1.776899	565.411743	565.418074
15.480000	-2.933283	1.272923	563.015907	563.024987
15.485000	-2.545009	1.505654	563.957542	563.965295
15.490000	-2.584075	1.505654	563.101761	563.109703
15.495000	-1.922341	1.931365	566.010857	566.017416
15.500000	-1.961407	1.931365	565.669060	565.675757
15.505000	-1.493811	2.086657	567.123863	567.129669
15.510000	-2.428110	1.583507	563.015907	563.023370
15.515000	-1.843019	2.085832	565.840218	565.847063
15.520000	-1.338740	2.396002	567.636192	567.642828
15.525000	-2.349979	1.544168	562.844116	562.851140
15.530000	-1.376614	2.124345	567.638626	567.644270
